Archivo de aceleración parte de la Red Nacional de Acelerógrafos (RENAC) Ecuador
          
Evento: 201604162358
Fecha del evento UTM (aammdd):                  2016    4   16
Hora del registro UTM (hhmmss): 23   59 45.00
Estación:                                      ACH1 
Componente:                                        E
Frecuencia de muestreo (Hz):            1.000000e+02
Unidades: cm/s^2
_____________________________________________
-0.4133 -0.4787 -0.4943 -0.4805 -0.4722 -0.4612
-0.4382 -0.4179 -0.3746 -0.3590 -0.3516 -0.2872
-0.1823 -0.0359 0.0828 0.1592 0.2034 0.2117
0.2411 0.2789 0.3111 0.3240 0.3111 0.3221
0.3332 0.3359 0.3442 0.3415 0.2918 0.1905
0.0607 -0.0792 -0.1712 -0.1777 -0.1307 -0.0764
-0.0479 -0.0875 -0.1675 -0.2219 -0.2237 -0.1860
-0.1197 -0.0497 -0.0129 0.0110 0.0083 -0.0194
0.0027 0.0681 0.1242 0.1795 0.1988 0.1574
0.1380 0.1077 0.0635 0.0377 -0.0019 -0.0019
0.0064 -0.0212 -0.0801 -0.1473 -0.2099 -0.2541
-0.2311 -0.1961 -0.1464 -0.1096 -0.1307 -0.1390
-0.1215 -0.0663 0.0202 0.0892 0.1463 0.1721
0.1509 0.1233 0.0920 0.0524 0.0395 0.0626
0.1178 0.1979 0.2697 0.3120 0.3074 0.2807
0.2457 0.1840 0.1362 0.1270 0.1491 0.1868
0.2135 0.2089 0.1748 0.1316 0.0791 0.0248
-0.0516 -0.1455 -0.1915 -0.1961 -0.1639 -0.1123
-0.1013 -0.0976 -0.0801 -0.0866 -0.0912 -0.0479
-0.0056 0.0220 0.0598 0.0791 0.0957 0.1178
0.1353 0.1481 0.1509 0.1435 0.1343 0.0892
0.0340 0.0276 -0.0120 -0.0378 -0.0258 -0.0553
-0.1031 -0.1814 -0.2688 -0.3268 -0.3830 -0.4419
-0.4364 -0.3968 -0.3139 -0.1731 -0.0654 0.0257
0.0506 -0.0028 -0.0295 -0.0304 -0.0341 0.0027
0.0276 0.0229 -0.0369 -0.1271 -0.1308 -0.1400
-0.0986 -0.0083 0.0128 0.0248 0.0220 0.0331
0.1288 0.2356 0.3193 0.4049 0.3948 0.3267
0.2899 0.2586 0.2742 0.3193 0.3322 0.3534
0.3884 0.4049 0.4592 0.4970 0.4491 0.3736
0.2963 0.2494 0.2420 0.2080 0.1454 0.1187
0.1113 0.1205 0.1822 0.2190 0.2328 0.2438
0.1767 0.1150 0.0892 0.0625 0.0598 0.0524
0.0607 0.0202 -0.0737 -0.1216 -0.1455 -0.1740
-0.1731 -0.1814 -0.2127 -0.1971 -0.1538 -0.0884
-0.0682 -0.1207 -0.2136 -0.3508 -0.4355 -0.4769
-0.4778 -0.3959 -0.2624 -0.0811 0.0708 0.1582
0.1978 0.1407 0.0091 -0.1059 -0.1814 -0.2431
-0.2449 -0.1897 -0.1556 -0.1326 -0.1243 -0.0802
-0.0010 0.0395 0.0542 0.0220 -0.0443 -0.1207
-0.1658 -0.1501 -0.1069 -0.0194 0.0846 0.1619
0.1647 0.1058 0.0367 -0.0102 -0.0010 0.0404
0.1067 0.1269 0.0809 0.0358 -0.0130 -0.0351
-0.0461 -0.0802 -0.0995 -0.1188 -0.1244 -0.1464
-0.1667 -0.1520 -0.1612 -0.1768 -0.2054 -0.2348
-0.2790 -0.3011 -0.2495 -0.1603 -0.0599 0.0330
0.1002 0.1177 0.0929 0.0395 -0.0111 -0.0231
0.0367 0.1030 0.1407 0.1775 0.1867 0.1693
0.1426 0.0901 0.0091 -0.0277 -0.0461 -0.0121
0.0367 0.0478 0.0441 -0.0084 -0.0452 -0.0544
-0.0296 0.0247 0.0680 0.1122 0.1628 0.2190
0.2852 0.3359 0.3515 0.3524 0.2677 0.1637
0.0809 0.0091 -0.0342 -0.0691 -0.0756 -0.1096
-0.1409 -0.1621 -0.2100 -0.2652 -0.3057 -0.2891
-0.2376 -0.1557 -0.0830 -0.0351 -0.0277 -0.0885
-0.1741 -0.2882 -0.3885 -0.4088 -0.3711 -0.3379
-0.3057 -0.2882 -0.2956 -0.2477 -0.1511 -0.0250
0.0965 0.1812 0.2263 0.1794 0.1195 0.0901
0.0836 0.1564 0.3036 0.4693 0.6378 0.7528
0.7528 0.6865 0.5669 0.4610 0.4003 0.3174
0.2493 0.1932 0.1646 0.1628 0.1858 0.2291
0.2180 0.1895 0.1214 0.0210 -0.0323 -0.0802
-0.0572 0.0477 0.1490 0.2291 0.2447 0.2033
0.1251 0.0266 -0.0185 -0.0360 -0.0471 -0.0195
-0.0388 -0.0802 -0.1014 -0.1189 -0.0959 -0.0949
-0.1299 -0.1842 -0.2569 -0.3085 -0.3094 -0.2615
-0.1833 -0.0646 0.0367 0.1232 0.1858 0.1711
0.1757 0.1895 0.2180 0.2493 0.2254 0.1876
0.1020 0.0293 0.0192 0.0238 0.0201 -0.0222
-0.1032 -0.1925 -0.2523 -0.2809 -0.2192 -0.0903
0.0551 0.1692 0.1968 0.1453 0.0348 -0.0683
-0.1069 -0.0591 0.0210 0.1177 0.2051 0.2217
0.2005 0.1738 0.1747 0.1977 0.2281 0.2419
0.2171 0.1609 0.1075 0.0891 0.0578 -0.0057
-0.0535 -0.0241 0.0753 0.2272 0.3864 0.4969
0.5356 0.5153 0.4757 0.3809 0.2907 0.2300
0.1628 0.1094 0.0468 -0.0397 -0.1032 -0.1401
-0.1852 -0.2220 -0.2478 -0.2349 -0.1658 -0.0683
0.0219 0.0772 0.0891 0.0624 0.0229 -0.0020
0.0109 0.0523 0.0983 0.1351 0.1499 0.1103
0.0348 -0.0618 -0.1272 -0.1327 -0.0793 0.0541
0.1848 0.2668 0.2576 0.1526 0.0035 -0.1603
-0.3122 -0.3932 -0.4042 -0.4079 -0.3969 -0.4107
-0.4282 -0.4282 -0.3822 -0.2800 -0.1981 -0.1612
-0.2017 -0.3140 -0.4070 -0.4328 -0.4319 -0.3950
-0.3472 -0.2984 -0.2229 -0.1566 -0.0591 0.0486
0.1278 0.1701 0.1499 0.1094 0.0615 0.0265
0.0357 0.0670 0.1204 0.1655 0.1729 0.1176
0.0146 -0.1281 -0.3095 -0.4899 -0.6353 -0.7200
-0.7467 -0.6970 -0.6123 -0.5589 -0.5755 -0.6390
-0.7043 -0.7365 -0.6749 -0.5396 -0.3859 -0.2496
-0.1493 -0.0738 0.0486 0.2216 0.4149 0.6119
0.7325 0.7583 0.7205 0.6607 0.6579 0.7288
0.8199 0.8586 0.7767 0.6248 0.4186 0.1940
0.0164 -0.1134 -0.1603 -0.1511 -0.0637 0.0873
0.2244 0.2971 0.2916 0.2723 0.2262 0.1590
0.1139 0.0955 0.0992 0.0550 -0.0223 -0.0858
-0.1309 -0.1438 -0.1843 -0.2625 -0.3619 -0.4337
-0.4604 -0.4586 -0.4402 -0.4659 -0.5377 -0.6114
-0.6850 -0.7669 -0.7807 -0.7228 -0.6022 -0.4393
-0.3104 -0.2303 -0.2064 -0.1631 -0.1116 -0.0582
0.0293 0.0780 0.0918 0.0753 0.0311 -0.0223
-0.0223 0.0228 0.0891 0.1774 0.2612 0.4103
0.5548 0.6901 0.8291 0.8880 0.8945 0.8595
0.8080 0.7573 0.6901 0.5926 0.4499 0.2621
0.0688 -0.1107 -0.1990 -0.1742 -0.0913 0.0403
0.1563 0.2078 0.1876 0.1241 0.0495 0.0062
0.0504 0.1535 0.2980 0.4711 0.6165 0.7196
0.7886 0.8190 0.8153 0.7628 0.6653 0.5456
0.4057 0.2548 0.1020 -0.0186 -0.1226 -0.2165
-0.2975 -0.3868 -0.4816 -0.5865 -0.6620 -0.6878
-0.6427 -0.5203 -0.3859 -0.2239 -0.0030 0.2419
0.4646 0.5953 0.6119 0.5392 0.4315 0.3542
0.2925 0.2649 0.2501 0.1857 0.1424 0.1498
0.1581 0.1507 0.1332 0.0992 0.0384 -0.0462
-0.1521 -0.2441 -0.3169 -0.3610 -0.3988 -0.4586
-0.5148 -0.5617 -0.5507 -0.4697 -0.3380 -0.1705
-0.0610 -0.0297 -0.0490 -0.0978 -0.1180 -0.1227
-0.1319 -0.1687 -0.1816 -0.1263 -0.0334 0.0844
0.1664 0.2078 0.2510 0.2897 0.3136 0.3477
0.3873 0.3652 0.3210 0.2731 0.1572 0.0237
-0.1061 -0.2156 -0.2672 -0.2699 -0.2027 -0.1052
-0.0002 0.1047 0.2142 0.3422 0.4287 0.4775
0.4609 0.3762 0.2685 0.1378 0.0550 -0.0131
-0.1015 -0.1714 -0.2304 -0.2304 -0.1816 -0.1263
-0.0987 -0.1521 -0.2939 -0.4531 -0.5709 -0.6354
-0.6344 -0.6013 -0.5360 -0.4411 -0.3344 -0.2432
-0.2285 -0.2396 -0.2276 -0.1715 -0.0923 -0.0628
-0.0849 -0.1346 -0.1705 -0.1926 -0.1567 -0.1356
-0.2074 -0.3058 -0.4421 -0.5194 -0.5185 -0.4577
-0.3298 -0.2101 -0.1043 -0.0269 0.0448 0.1001
0.1489 0.2372 0.2961 0.3550 0.3633 0.2851
0.1912 0.0715 -0.0398 -0.1227 -0.1254 -0.0665
0.0412 0.1949 0.3210 0.4342 0.5548 0.6818
0.7923 0.8760 0.9091 0.8981 0.8502 0.7775
0.7030 0.6183 0.5520 0.4765 0.3854 0.3145
0.3136 0.3670 0.4342 0.4774 0.4830 0.4682
0.4241 0.3339 0.2022 0.0771 -0.0408 -0.0822
-0.0306 0.0513 0.1562 0.2648 0.3716 0.5078
0.6873 0.8594 0.9855 1.0076 0.9496 0.8309
0.6367 0.4425 0.2041 -0.0463 -0.2258 -0.3832
-0.4909 -0.5673 -0.6750 -0.7946 -0.9042 -0.9382
-0.8867 -0.8002 -0.6915 -0.5838 -0.5065 -0.4504
-0.4191 -0.4016 -0.3454 -0.2460 -0.0969 0.0853
0.2087 0.2335 0.1323 -0.0702 -0.3307 -0.6326
-0.8959 -1.0616 -1.1324 -1.1509 -1.1416 -1.1941
-1.2981 -1.3791 -1.4822 -1.5098 -1.4988 -1.4647
-1.3009 -1.1021 -0.8545 -0.5848 -0.3850 -0.2414
-0.1853 -0.2037 -0.2617 -0.2810 -0.2175 -0.0933
0.0402 0.1129 0.1709 0.2289 0.3044 0.4305
0.5511 0.6523 0.7149 0.7195 0.7370 0.8263
0.9726 1.1558 1.3445 1.4540 1.4549 1.3933
1.2653 1.1043 0.9358 0.7029 0.4397 0.1369
-0.1982 -0.4568 -0.6373 -0.7090 -0.6925 -0.6566
-0.6041 -0.5922 -0.5949 -0.5627 -0.4891 -0.3142
-0.0721 0.1580 0.3449 0.4885 0.5520 0.5372
0.4931 0.3771 0.2326 0.0982 -0.0224 -0.1144
-0.1890 -0.3234 -0.5912 -0.9401 -1.2641 -1.4427
-1.4003 -1.2033 -0.9290 -0.6060 -0.3225 -0.0905
0.0448 0.0789 0.0825 0.0789 0.0954 0.1562
0.2675 0.3854 0.5648 0.7305 0.8032 0.8447
0.8198 0.7830 0.7314 0.6403 0.5354 0.4314
0.3863 0.3743 0.4203 0.5243 0.6219 0.7425
0.8152 0.8437 0.8879 0.9220 1.0288 1.1558
1.2386 1.2211 1.0214 0.7112 0.3485 0.0273
-0.2120 -0.3556 -0.4053 -0.4320 -0.4615 -0.5277
-0.6318 -0.7256 -0.7689 -0.7128 -0.6069 -0.5084
-0.3906 -0.3298 -0.2765 -0.1826 -0.0887 0.0264
0.0991 0.1341 0.1322 0.0632 -0.0611 -0.2194
-0.3547 -0.4385 -0.5029 -0.4937 -0.4173 -0.3759
-0.3142 -0.2479 -0.1421 0.0521 0.2215 0.3936
0.5602 0.6808 0.8299 0.9800 1.1125 1.2064
1.2358 1.2303 1.1521 1.0241 0.8299 0.5713
0.2758 -0.0169 -0.2479 -0.3906 -0.4431 -0.5158
-0.6106 -0.6953 -0.7514 -0.7229 -0.6539 -0.5314
-0.3612 -0.1900 0.0043 0.2104 0.3642 0.4406
0.4304 0.3430 0.2215 0.0770 -0.0896 -0.2811
-0.4550 -0.5729 -0.6382 -0.6704 -0.7054 -0.7726
-0.8591 -0.8444 -0.7560 -0.7082 -0.7128 -0.7855
-0.8858 -0.9457 -0.9153 -0.7919 -0.6134 -0.4127
-0.1973 -0.0013 0.1101 0.1386 0.1221 0.0641
-0.0298 -0.1090 -0.1890 -0.2093 -0.1016 0.0834
0.3218 0.5004 0.5676 0.5510 0.4544 0.3421
0.2859 0.3172 0.4267 0.5933 0.7691 0.8732
0.8649 0.7369 0.5390 0.2831 0.0392 -0.1025
-0.1743 -0.2102 -0.2664 -0.3943 -0.5664 -0.7183
-0.7745 -0.6971 -0.5223 -0.2636 0.0070 0.2040
0.3328 0.3991 0.4589 0.5694 0.6946 0.7710
0.7636 0.6486 0.4829 0.3292 0.2123 0.1248
0.0493 0.0015 -0.0096 0.0107 -0.0344 -0.1679
-0.3667 -0.6254 -0.9024 -1.1141 -1.2467 -1.3313
-1.3166 -1.2568 -1.1242 -0.9586 -0.8417 -0.7294
-0.7018 -0.7008 -0.7100 -0.7174 -0.6235 -0.4854
-0.3400 -0.1762 0.0079 0.1690 0.2629 0.2877
0.2905 0.3365 0.4608 0.6771 0.9477 1.1732
1.3472 1.4779 1.4889 1.3987 1.2496 1.0278
0.7351 0.4488 0.1966 0.0162 -0.0280 0.0005
0.0558 0.0641 -0.0390 -0.2056 -0.3382 -0.3962
-0.4551 -0.5048 -0.5011 -0.4569 -0.3428 -0.1992
-0.0455 0.0769 0.1920 0.3061 0.3485 0.3844
0.3853 0.3807 0.3816 0.3466 0.3328 0.3383
0.3982 0.4562 0.4792 0.4884 0.4331 0.3429
0.2675 0.1911 0.1165 0.0815 0.0779 0.0760
0.0254 -0.0657 -0.1790 -0.2572 -0.2719 -0.2342
-0.1357 -0.0547 -0.0059 -0.0032 -0.0611 -0.1449
-0.2112 -0.2462 -0.2646 -0.2719 -0.2728 -0.2185
-0.1431 -0.1228 -0.1274 -0.1293 -0.1495 -0.1504
-0.1081 -0.1201 -0.1698 -0.2618 -0.3824 -0.4763
-0.5904 -0.6650 -0.6972 -0.6686 -0.5849 -0.4735
-0.3281 -0.2103 -0.0851 0.0125 0.0539 0.0797
0.1349 0.2325 0.3457 0.4580 0.5491 0.6191
0.6458 0.6329 0.6246 0.6844 0.8188 1.0103
1.1879 1.2367 1.1299 0.9219 0.7222 0.6025
0.5648 0.5813 0.6651 0.7728 0.8832 1.0075
1.0526 0.9955 0.8869 0.8004 0.7378 0.7139
0.7120 0.6927 0.7350 0.7534 0.7396 0.7047
0.6117 0.5463 0.4663 0.3586 0.2518 0.1358
0.0705 0.0281 -0.0087 -0.0354 -0.1044 -0.1836
-0.2839 -0.3981 -0.4901 -0.5555 -0.5518 -0.4965
-0.4201 -0.3760 -0.4045 -0.4533 -0.4754 -0.4616
-0.4017 -0.3677 -0.4294 -0.5573 -0.7073 -0.7948
-0.7718 -0.6539 -0.4514 -0.2084 -0.0013 0.1275
0.1643 0.1257 0.0695 0.0438 0.0622 0.1266
0.1827 0.1597 0.0539 -0.1210 -0.3263 -0.4643
-0.5463 -0.6042 -0.6622 -0.7911 -0.9623 -1.1068
-1.1611 -1.1335 -1.0194 -0.8712 -0.7699 -0.7073
-0.7350 -0.8215 -0.9144 -0.9559 -0.8620 -0.7147
-0.5950 -0.5950 -0.7350 -0.9209 -1.0718 -1.1206
-1.0691 -0.9688 -0.9246 -0.9421 -1.0277 -1.1234
-1.1252 -1.0764 -0.9467 -0.8068 -0.7073 -0.6337
-0.6006 -0.5978 -0.5951 -0.5371 -0.4432 -0.2692
-0.0768 0.0622 0.1192 0.1220 0.1965 0.3079
0.4294 0.4994 0.4736 0.4064 0.3466 0.2867
0.1993 0.1266 0.0953 0.1367 0.2076 0.2978
0.3871 0.4000 0.3797 0.3291 0.2131 0.0888
0.0069 -0.0584 -0.1127 -0.2029 -0.3272 -0.4054
-0.3953 -0.2370 0.0124 0.3070 0.5877 0.7939
0.8786 0.8289 0.7589 0.7046 0.7396 0.8252
0.9734 1.1722 1.3011 1.4115 1.5100 1.6067
1.6288 1.5993 1.5616 1.4971 1.4760 1.4511
1.4134 1.2919 1.1115 0.9412 0.7470 0.6347
0.5408 0.4542 0.3475 0.1744 0.0345 -0.0925
-0.1256 -0.0925 -0.0281 0.0732 0.1293 0.1247
0.0483 -0.0612 -0.1993 -0.3438 -0.4165 -0.4202
-0.3650 -0.2462 -0.1220 -0.0087 0.0667 0.0400
-0.0861 -0.2398 -0.3714 -0.4616 -0.4625 -0.3935
-0.2840 -0.1321 0.0437 0.2407 0.4091 0.4984
0.5454 0.5223 0.5049 0.5684 0.6402 0.7396
0.8049 0.7911 0.7672 0.7525 0.7653 0.7764
0.7792 0.7893 0.7037 0.5205 0.3152 0.1127
0.0143 -0.0108 -0.0108 -0.0108 0.0169 0.0067
-0.0181 -0.0421 -0.0816 -0.1175 -0.1046 -0.0734
-0.0430 -0.0071 -0.0052 -0.0025 -0.0614 -0.1801
-0.2547 -0.3246 -0.3946 -0.4517 -0.5483 -0.6809
-0.8125 -0.9552 -1.0840 -1.2267 -1.3832 -1.5222
-1.6832 -1.8388 -2.0026 -2.1536 -2.2880 -2.4030
-2.4767 -2.5466 -2.5788 -2.5899 -2.5798 -2.5218
-2.4251 -2.3147 -2.1978 -2.0459 -1.8747 -1.6400
-1.3408 -1.0463 -0.7720 -0.5612 -0.4250 -0.2980
-0.0991 0.1779 0.5001 0.8572 1.2134 1.5034
1.6405 1.6378 1.5494 1.4178 1.3211 1.2696
1.2779 1.3441 1.4224 1.4932 1.5485 1.5926
1.5862 1.5402 1.4840 1.3874 1.2530 1.0956
0.9713 0.8839 0.8130 0.7734 0.6970 0.6538
0.7026 0.7753 0.9023 1.0072 1.0744 1.1462
1.1674 1.1435 1.0772 0.9492 0.8360 0.7467
0.5903 0.4145 0.2497 0.1282 0.1181 0.1043
0.0711 -0.0412 -0.2658 -0.4545 -0.6303 -0.7462
-0.7766 -0.8217 -0.8567 -0.8677 -0.8668 -0.8457
-0.8107 -0.7693 -0.6818 -0.5530 -0.3449 -0.0706
0.1770 0.3795 0.4973 0.5764 0.6446 0.7578
0.9041 1.0284 1.1600 1.2033 1.1895 1.1379
1.0440 0.9722 0.9419 0.9824 0.9676 0.8719
0.7338 0.5856 0.5323 0.5065 0.4789 0.3887
0.1503 -0.1480 -0.4674 -0.7407 -0.9110 -0.9929
-1.0270 -1.0436 -1.0454 -1.0500 -1.0252 -0.9893
-0.9248 -0.8540 -0.8576 -0.8880 -0.9018 -0.8714
-0.7766 -0.6588 -0.5585 -0.4839 -0.4158 -0.3247
-0.2566 -0.2188 -0.1701 -0.1204 -0.0624 -0.0421
-0.0845 -0.2133 -0.4039 -0.6027 -0.8043 -0.9479
-1.0611 -1.0914 -1.0427 -0.9745 -0.8853 -0.8181
-0.7334 -0.6395 -0.4720 -0.2897 -0.1912 -0.1443
-0.1535 -0.1305 -0.1204 -0.1093 -0.0661 0.0287
0.1852 0.3307 0.4448 0.4862 0.5350 0.5598
0.5488 0.5792 0.6372 0.7228 0.7347 0.6482
0.5101 0.3454 0.2460 0.1935 0.1659 0.1364
0.0435 -0.0357 -0.1498 -0.2686 -0.3321 -0.3965
-0.4306 -0.4315 -0.3993 -0.3652 -0.3321 -0.2815
-0.1959 -0.0541 0.1355 0.3527 0.5212 0.6777
0.8240 0.9262 0.9878 0.9740 0.9280 0.9041
0.9013 0.8857 0.8746 0.9013 0.9473 0.9648
0.9860 1.0431 1.0891 1.1452 1.1333 1.0421
0.9621 0.8737 0.7872 0.6694 0.5368 0.4144
0.3021 0.2377 0.1999 0.1594 0.1125 0.0757
0.0140 -0.1121 -0.2787 -0.4407 -0.5825 -0.7159
-0.8181 -0.8936 -0.9442 -0.9534 -0.9359 -0.8623
-0.7500 -0.6184 -0.4499 -0.2806 -0.1397 -0.0173
0.0858 0.1705 0.3297 0.5083 0.6850 0.8571
0.9565 1.0127 0.9805 0.9446 0.9639 1.0384
1.2124 1.4149 1.6018 1.7131 1.7647 1.8227
1.8871 1.9598 1.9994 1.9810 1.8807 1.7159
1.5336 1.3468 1.1443 0.9179 0.6822 0.4291
0.1879 -0.0413 -0.2410 -0.3726 -0.4398 -0.4518
-0.4472 -0.4490 -0.5208 -0.6073 -0.7021 -0.7970
-0.8457 -0.9369 -0.9856 -1.0050 -1.0676 -1.1246
-1.1311 -1.0740 -1.0335 -1.0252 -1.1338 -1.3363
-1.5508 -1.7818 -1.9273 -2.0147 -2.0479 -2.0147
-2.0046 -1.9972 -2.0396 -2.1344 -2.1887 -2.2025
-2.1556 -2.0571 -1.9153 -1.7699 -1.6935 -1.6696
-1.6511 -1.5886 -1.4956 -1.3750 -1.2415 -1.1044
-0.8964 -0.6534 -0.3809 -0.1269 0.0489 0.1502
0.1566 0.1115 0.0591 0.0609 0.1060 0.1713
0.2956 0.4171 0.5211 0.5975 0.6371 0.6610
0.6389 0.6214 0.6242 0.6012 0.5662 0.5635
0.5874 0.5920 0.6426 0.6785 0.6306 0.5948
0.5294 0.4825 0.4723 0.4088 0.3352 0.2330
0.1649 0.1769 0.2155 0.2615 0.2523 0.2137
0.2036 0.2459 0.3840 0.5938 0.8092 0.9878
1.0936 1.1341 1.0522 0.8957 0.7254 0.5303
0.4189 0.3545 0.3425 0.3729 0.3803 0.3968
0.3886 0.3342 0.1879 0.0121 -0.1481 -0.2742
-0.3331 -0.3754 -0.3653 -0.3533 -0.3340 -0.2815
-0.2677 -0.2677 -0.2594 -0.2254 -0.1637 -0.0652
0.0535 0.1373 0.2302 0.2864 0.3177 0.3232
0.2394 0.1483 0.0553 -0.0091 -0.0542 -0.0855
-0.0744 -0.0533 0.0056 0.0719 0.1373 0.1943
0.2330 0.2468 0.2247 0.1879 0.1391 0.1501
0.1851 0.2072 0.2311 0.2284 0.2486 0.2468
0.2035 0.1336 0.0360 -0.0772 -0.2447 -0.4040
-0.5181 -0.5927 -0.6497 -0.6921 -0.7169 -0.7906
-0.8909 -1.0142 -1.1449 -1.2453 -1.3162 -1.3171
-1.2324 -1.1173 -0.9627 -0.7584 -0.5789 -0.4058
-0.2632 -0.1582 -0.0413 0.0912 0.2431 0.3710
0.3913 0.2882 0.1207 -0.0450 -0.1242 -0.1481
-0.1232 -0.0432 0.0369 0.1814 0.3222 0.3986
0.4171 0.3766 0.3664 0.3775 0.3664 0.3802
0.3986 0.3802 0.3701 0.3462 0.3379 0.3186
0.2744 0.2891 0.2670 0.2330 0.1906 0.1142
0.0912 0.0940 0.1879 0.4042 0.6932 1.0411
1.3670 1.6026 1.7333 1.7462 1.7002 1.6146
1.5382 1.5326 1.5483 1.6173 1.6431 1.5510
1.3706 1.0568 0.6877 0.3370 0.0258 -0.2079
-0.3985 -0.5191 -0.5909 -0.6700 -0.7050 -0.7004
-0.6360 -0.5393 -0.4381 -0.3046 -0.1877 -0.0726
0.0387 0.0857 0.0903 0.0728 0.0295 -0.0248
-0.1113 -0.1997 -0.3009 -0.4289 -0.5117 -0.5927
-0.6627 -0.6921 -0.6921 -0.6507 -0.6139 -0.5964
-0.6535 -0.7971 -0.9471 -1.0575 -1.1275 -1.1026
-0.9913 -0.8412 -0.6295 -0.4546 -0.3598 -0.3120
-0.3331 -0.3865 -0.4721 -0.5973 -0.7225 -0.8090
-0.8090 -0.7308 -0.6047 -0.4372 -0.2448 -0.0138
0.2329 0.4189 0.5578 0.6775 0.7576 0.8377
0.9509 1.0264 1.0310 0.9785 0.8616 0.7263
0.5624 0.3130 0.0231 -0.2632 -0.5412 -0.7649
-0.9342 -1.0447 -1.0723 -1.1045 -1.1395 -1.1579
-1.1680 -1.1367 -1.0364 -0.8505 -0.6599 -0.5062
-0.4252 -0.4105 -0.3939 -0.3727 -0.3433 -0.2825
-0.1960 -0.0911 0.0728 0.2633 0.4419 0.5726
0.6425 0.6931 0.6803 0.6195 0.5431 0.5182
0.5882 0.6941 0.7944 0.8643 0.9150 0.9472
0.9702 0.9914 0.9803 0.9748 1.0319 1.1027
1.1874 1.1893 1.0558 0.8607 0.6066 0.3737
0.1151 -0.1537 -0.3562 -0.5302 -0.6526 -0.6968
-0.6581 -0.5605 -0.4639 -0.3829 -0.3369 -0.3313
-0.3129 -0.2835 -0.1933 -0.0681 0.0074 0.0286
-0.0469 -0.1537 -0.2411 -0.2596 -0.2200 -0.1832
-0.1325 -0.1730 -0.2927 -0.4814 -0.7097 -0.8772
-1.0070 -1.0926 -1.1929 -1.2767 -1.3116 -1.3034
-1.2251 -1.0742 -0.9204 -0.8459 -0.7962 -0.7824
-0.7594 -0.7014 -0.6296 -0.5394 -0.4998 -0.4538
-0.3792 -0.2485 -0.0331 0.2329 0.5210 0.7806
0.9978 1.1487 1.2472 1.3393 1.4304 1.5169
1.6264 1.7056 1.7351 1.7369 1.7259 1.7277
1.7120 1.6734 1.5804 1.4690 1.3696 1.3218
1.3043 1.2656 1.2012 1.0926 0.9775 0.8615
0.8266 0.8238 0.8072 0.7318 0.5762 0.4160
0.2531 0.1684 0.1473 0.1279 0.0994 0.0543
-0.0285 -0.1602 -0.3139 -0.4280 -0.4648 -0.4621
-0.4363 -0.4566 -0.4934 -0.5164 -0.5698 -0.6195
-0.6416 -0.6167 -0.5348 -0.4354 -0.3433 -0.2090
-0.0884 0.0166 0.0902 0.0865 0.0791 0.0414
-0.0009 -0.0276 -0.0635 -0.1132 -0.1813 -0.2651
-0.3480 -0.4032 -0.4105 -0.3820 -0.3167 -0.1565
0.0202 0.1693 0.2016 0.0580 -0.1823 -0.4280
-0.6305 -0.7612 -0.7410 -0.7115 -0.7079 -0.7318
-0.8091 -0.8818 -0.9812 -1.0438 -1.0641 -1.0484
-1.0079 -0.9463 -0.8800 -0.8367 -0.7741 -0.7272
-0.6812 -0.6213 -0.5541 -0.4630 -0.3572 -0.2725
-0.2311 -0.2458 -0.3121 -0.4004 -0.5173 -0.6158
-0.7198 -0.8542 -0.9941 -1.1497 -1.2813 -1.3669
-1.3853 -1.3522 -1.2583 -1.1239 -0.9960 -0.8386
-0.6839 -0.5532 -0.4216 -0.2633 -0.0967 0.0460
0.1684 0.2245 0.2476 0.2973 0.3479 0.4086
0.4694 0.5154 0.5430 0.5467 0.5660 0.5430
0.5007 0.5016 0.4860 0.4372 0.3635 0.3074
0.2973 0.3414 0.4086 0.4289 0.4003 0.3304
0.2549 0.2080 0.1739 0.1859 0.2319 0.2540
0.2503 0.2070 0.1371 0.0727 0.0248 0.0294
0.0892 0.1831 0.2945 0.3746 0.4132 0.4666
0.5310 0.6001 0.6378 0.6240 0.6120 0.6111
0.6406 0.7004 0.8007 0.8882 0.9149 0.9296
0.9278 0.9324 0.9139 0.8403 0.7455 0.6185
0.4961 0.4215 0.3350 0.2724 0.2245 0.1905
0.2190 0.2236 0.2346 0.2144 0.1426 0.0312
-0.1142 -0.2283 -0.3581 -0.4806 -0.5671 -0.6398
-0.7392 -0.8257 -0.9040 -0.9417 -0.8966 -0.8377
-0.7236 -0.5855 -0.4658 -0.3222 -0.0967 0.1674
0.4307 0.7124 0.9903 1.2324 1.3769 1.4552
1.4745 1.5076 1.5978 1.7074 1.8289 1.9448
2.0369 2.0792 2.1188 2.1400 2.1326 2.1022
2.0102 1.8519 1.6199 1.3106 0.9830 0.7013
0.4408 0.2254 0.0607 -0.0903 -0.2311 -0.3940
-0.5726 -0.7236 -0.8994 -1.0964 -1.2639 -1.4019
-1.5271 -1.6661 -1.7876 -1.8695 -1.8797 -1.8557
-1.8060 -1.7379 -1.6891 -1.6210 -1.5474 -1.4719
-1.4415 -1.4544 -1.4747 -1.5400 -1.5952 -1.6496
-1.7683 -1.8787 -1.9524 -1.9947 -1.9533 -1.8567
-1.7434 -1.6680 -1.6551 -1.6698 -1.6560 -1.5575
-1.3909 -1.1525 -0.8773 -0.6334 -0.4290 -0.2265
0.0100 0.2457 0.4822 0.7188 0.9452 1.1827
1.3520 1.4689 1.5315 1.4745 1.3981 1.3088
1.2388 1.1937 1.1026 1.0336 1.0198 1.0612
1.1412 1.2545 1.3345 1.3530 1.2812 1.1017
0.8817 0.6433 0.4638 0.3552 0.2650 0.1610
0.0201 -0.1722 -0.3527 -0.5165 -0.6757 -0.7540
-0.8184 -0.8828 -0.9169 -0.9399 -0.9721 -1.0191
-1.0688 -1.0918 -1.0384 -0.9141 -0.7291 -0.5147
-0.2928 -0.1133 0.0459 0.2051 0.3165 0.4518
0.6580 0.9148 1.2121 1.4965 1.7138 1.8343
1.8620 1.8914 1.9365 2.0083 2.1022 2.1813
2.2550 2.2762 2.2725 2.2292 2.1344 2.0525
1.9641 1.8638 1.7911 1.7055 1.6070 1.5159
1.4349 1.3658 1.2508 1.1201 0.9488 0.7868
0.6543 0.4895 0.3266 0.1112 -0.1382 -0.3646
-0.5276 -0.6261 -0.6813 -0.7089 -0.7936 -0.8865
-0.9758 -1.1176 -1.2695 -1.4370 -1.5981 -1.7693
-1.9819 -2.1973 -2.4412 -2.6584 -2.8250 -2.9171
-2.9428 -2.9226 -2.8352 -2.7339 -2.6106 -2.5305
-2.4596 -2.3584 -2.1991 -1.9534 -1.6708 -1.3449
-1.0347 -0.7844 -0.5985 -0.4512 -0.3315 -0.2027
-0.0701 0.0578 0.1425 0.1572 0.1646 0.1756
0.2373 0.3211 0.4002 0.5042 0.6396 0.7463
0.7767 0.7178 0.6046 0.5006 0.3772 0.2981
0.2373 0.1775 0.1351 0.0974 0.0744 0.0100
-0.0701 -0.1594 -0.1962 -0.1962 -0.1732 -0.0655
0.0348 0.0928 0.0771 -0.0425 -0.2027 -0.3453
-0.4144 -0.4282 -0.4300 -0.4337 -0.4632 -0.4530
-0.3757 -0.2993 -0.2616 -0.2680 -0.3269 -0.4254
-0.5064 -0.5994 -0.6776 -0.7264 -0.7890 -0.8102
-0.7872 -0.7421 -0.6675 -0.5340 -0.4015 -0.3021
-0.1815 -0.0950 -0.0075 0.0873 0.1811 0.3091
0.4324 0.5576 0.6883 0.8420 1.0344 1.2452
1.4238 1.5489 1.6299 1.6732 1.6502 1.5388
1.3998 1.2452 1.1126 1.0188 0.9451 0.9387
0.9727 1.0326 1.0915 1.0998 1.0224 0.8788
0.7353 0.6018 0.4665 0.3312 0.2262 0.1554
0.1222 0.0937 0.0256 -0.0932 -0.2680 -0.4236
-0.5193 -0.5313 -0.4300 -0.2478 -0.0186 0.1784
0.3008 0.3597 0.3661 0.3892 0.4251 0.4453
0.4646 0.4655 0.4241 0.3450 0.2373 0.1195
0.0385 -0.0343 -0.1070 -0.2395 -0.4061 -0.5387
-0.6970 -0.8746 -1.0587 -1.1848 -1.2078 -1.1038
-0.9464 -0.8130 -0.6602 -0.5092 -0.3932 -0.3472
-0.3353 -0.4218 -0.5884 -0.7439 -0.8912 -0.9750
-1.0274 -1.0762 -1.0495 -0.9787 -0.8949 -0.7826
-0.6869 -0.6031 -0.5497 -0.5120 -0.4660 -0.3850
-0.2902 -0.2009 -0.1190 -0.1190 -0.1364 -0.1981
-0.2386 -0.2073 -0.1245 0.0541 0.2225 0.3505
0.3707 0.3044 0.2465 0.2271 0.3054 0.4315
0.5539 0.6146 0.5953 0.5723 0.5981 0.7076
0.8917 1.1126 1.3363 1.5461 1.7210 1.8140
1.8453 1.7937 1.6999 1.6465 1.5572 1.4265
1.2516 0.9791 0.6781 0.3827 0.1507 0.0817
0.0679 0.0513 0.0237 -0.0822 -0.1935 -0.3270
-0.5019 -0.6630 -0.7789 -0.8268 -0.8194 -0.7458
-0.6308 -0.5212 -0.4651 -0.4835 -0.5691 -0.6473
-0.7072 -0.7256 -0.6841 -0.6436 -0.5838 -0.5755
-0.6565 -0.7550 -0.8314 -0.8130 -0.6795 -0.5240
-0.3970 -0.3288 -0.3519 -0.4292 -0.5139 -0.5645
-0.5930 -0.5939 -0.5212 -0.4273 -0.3123 -0.2027
-0.1576 -0.1236 -0.1089 -0.0242 0.1295 0.2943
0.5134 0.7048 0.8926 1.0942 1.2709 1.4522
1.6308 1.7891 1.9032 1.9842 2.0698 2.1628
2.2493 2.3184 2.3221 2.2576 2.1518 2.0036
1.8048 1.5572 1.3289 1.1549 1.0012 0.8567
0.7057 0.4949 0.2961 0.1304 -0.0095 -0.1540
-0.3684 -0.6068 -0.8011 -0.8572 -0.8112 -0.7495
-0.7256 -0.7376 -0.7661 -0.8121 -0.8765 -0.9382
-0.9566 -0.9437 -0.8765 -0.8130 -0.7965 -0.8627
-0.9907 -1.1140 -1.2328 -1.3055 -1.3359 -1.3239
-1.2364 -1.0836 -0.8821 -0.6501 -0.4863 -0.4191
-0.3740 -0.3593 -0.3731 -0.3758 -0.3648 -0.2994
-0.2111 -0.1669 -0.1393 -0.0758 0.0052 0.0688
0.1304 0.1580 0.1083 0.0218 -0.0408 -0.0564
-0.0518 -0.0215 0.0200 0.0255 -0.0371 -0.1632
-0.2810 -0.3657 -0.4292 -0.4900 -0.5765 -0.6639
-0.7238 -0.7376 -0.7431 -0.7735 -0.8296 -0.9484
-1.0855 -1.1941 -1.2567 -1.2512 -1.2144 -1.1398
-1.0515 -0.9695 -0.8950 -0.7514 -0.4955 -0.1890
0.1378 0.4194 0.6146 0.7545 0.8760 0.9100
0.9008 0.9008 0.8879 0.9303 0.9910 1.0545
1.1447 1.2009 1.2101 1.1668 1.0895 1.0545
1.0371 1.0214 0.9846 0.9395 0.8723 0.7701
0.6725 0.5244 0.3642 0.2197 0.1138 0.0328
0.0043 -0.0086 -0.0951 -0.2083 -0.3814 -0.5231
-0.5903 -0.5922 -0.4789 -0.3363 -0.2065 -0.1190
-0.1071 -0.1319 -0.1660 -0.1798 -0.1688 -0.1568
-0.1292 -0.0914 -0.0408 0.0015 0.0107 0.0070
-0.0068 -0.0583 -0.1191 -0.1789 -0.2360 -0.2608
-0.3004 -0.2985 -0.2700 -0.2396 -0.1632 -0.0859
0.0043 0.0669 0.0917 0.0540 -0.0252 -0.0850
-0.1301 -0.1218 -0.1255 -0.1982 -0.3124 -0.4311
-0.5323 -0.5443 -0.4661 -0.3492 -0.2001 -0.0316
0.1690 0.3899 0.6210 0.8318 0.9827 1.0867
1.1410 1.1788 1.2625 1.3711 1.5405 1.7209
1.8829 2.0412 2.1038 2.1112 2.1057 2.1278
2.1618 2.1683 2.1646 2.1195 2.0422 1.9455
1.8525 1.7320 1.5746 1.4411 1.3472 1.2855
1.2773 1.2975 1.2984 1.2625 1.1824 1.0959
0.9938 0.8640 0.7351 0.5703 0.4047 0.2896
0.2160 0.1727 0.1727 0.2086 0.2031 0.1893
0.1506 0.1018 0.0466 -0.0869 -0.2213 -0.3704
-0.5204 -0.6281 -0.7036 -0.7496 -0.8269 -0.9319
-1.0073 -1.0322 -0.9908 -0.8840 -0.7855 -0.7386
-0.7376 -0.7827 -0.8196 -0.8205 -0.8067 -0.7330
-0.6465 -0.5922 -0.5674 -0.6106 -0.6336 -0.6272
-0.5793 -0.4928 -0.4744 -0.4854 -0.5232 -0.6373
-0.7699 -0.9540 -1.1445 -1.2973 -1.4418 -1.4989
-1.5173 -1.4556 -1.3148 -1.1850 -1.0635 -0.9494
-0.8297 -0.6907 -0.5213 -0.3814 -0.2378 -0.1302
-0.0482 0.0613 0.1782 0.3153 0.4525 0.5519
0.5758 0.6209 0.6835 0.7857 0.9274 1.0407
1.1364 1.1576 1.1419 1.1226 1.0756 1.0278
0.9827 0.8915 0.7894 0.7194 0.6900 0.6762
0.6007 0.4691 0.3052 0.1230 0.0116 -0.0096
0.0346 0.1018 0.1303 0.0999 0.0042 -0.1237
-0.2802 -0.3943 -0.4799 -0.5094 -0.4330 -0.3759
-0.2922 -0.2397 -0.2581 -0.2876 -0.3557 -0.4542
-0.5573 -0.6622 -0.7579 -0.8426 -0.9006 -0.9236
-0.9807 -1.1040 -1.3065 -1.5256 -1.7042 -1.7870
-1.7474 -1.6406 -1.4796 -1.3084 -1.1326 -0.9899
-0.9494 -0.9963 -1.0792 -1.1123 -1.0249 -0.8583
-0.6723 -0.4919 -0.3474 -0.2563 -0.1808 -0.0952
-0.0556 -0.0565 -0.0501 -0.0621 -0.0943 -0.1320
-0.1900 -0.1891 -0.1044 0.0106 0.1524 0.3144
0.4755 0.6393 0.8271 1.0149 1.1824 1.3002
1.4005 1.4742 1.4410 1.3379 1.1235 0.8151
0.4681 0.0953 -0.1882 -0.3539 -0.4220 -0.3677
-0.2499 -0.1339 -0.0345 0.0143 0.0162 0.0033
0.0171 0.0833 0.1938 0.3300 0.4304 0.4368
0.3641 0.2417 0.0889 -0.0105 -0.0860 -0.1256
-0.0888 -0.0363 0.0428 0.1146 0.1561 0.2196
0.3070 0.4046 0.5104 0.5583 0.5123 0.4156
0.3181 0.2591 0.2794 0.3926 0.5104 0.5924
0.5942 0.4791 0.3153 0.0714 -0.1652 -0.3539
-0.5398 -0.6061 -0.6107 -0.6116 -0.6088 -0.6300
-0.6586 -0.6788 -0.6355 -0.4910 -0.2434 0.0180
0.2518 0.4018 0.4193 0.4248 0.4672 0.5436
0.6651 0.7203 0.7019 0.6890 0.6043 0.5003
0.4432 0.4202 0.4699 0.5795 0.7249 0.8151
0.7994 0.6761 0.4837 0.2472 0.0557 0.0410
0.1790 0.4248 0.6347 0.7700 0.8289 0.7727
0.7286 0.7599 0.8777 1.0277 1.1032 1.0765
0.9209 0.6632 0.3834 0.1662 0.0474 0.0170
0.0612 0.0640 0.0106 -0.0962 -0.1956 -0.2370
-0.2517 -0.1772 -0.0851 -0.0695 -0.1836 -0.4064
-0.6972 -0.9559 -1.1289 -1.2394 -1.2606 -1.2946
-1.3590 -1.4327 -1.5395 -1.6002 -1.5984 -1.5487
-1.4410 -1.3149 -1.1630 -1.0369 -0.9154 -0.7700
-0.6457 -0.4681 -0.2269 0.0400 0.3337 0.6006
0.7552 0.8565 0.9154 0.9421 0.9872 1.0047
1.0093 1.0028 0.9504 0.9218 0.9301 0.8648
0.7700 0.6264 0.4395 0.2876 0.1376 0.1045
0.1818 0.3051 0.4708 0.6254 0.7295 0.7782
0.8012 0.7828 0.7727 0.7709 0.7129 0.6613
0.6043 0.5058 0.3217 0.0778 -0.1873 -0.4625
-0.6641 -0.8169 -0.9292 -1.0332 -1.1630 -1.3361
-1.5505 -1.7309 -1.8580 -1.8929 -1.8175 -1.6601
-1.4852 -1.3351 -1.2081 -1.1179 -1.0535 -0.9651
-0.8740 -0.8068 -0.7534 -0.7286 -0.7240 -0.7507
-0.7727 -0.7866 -0.7718 -0.6963 -0.6071 -0.4451
-0.2361 -0.0235 0.2241 0.4340 0.5895 0.6705
0.6862 0.7009 0.7313 0.8040 0.9144 1.0166
1.0129 0.9062 0.7322 0.5417 0.4036 0.3143
0.2692 0.2600 0.2968 0.2839 0.2195 0.1228
-0.0465 -0.2242 -0.3816 -0.4616 -0.4561 -0.4211
-0.3512 -0.2407 -0.1542 -0.1027 -0.0520 -0.0125
0.0170 0.0455 0.0621 0.0280 -0.0382 -0.1303
-0.2417 -0.3098 -0.3355 -0.3263 -0.2739 -0.1864
-0.1018 -0.0456 0.0142 0.0685 0.1477 0.2149
0.2554 0.2968 0.2517 0.2186 0.2029 0.1532
0.1587 0.1504 0.1155 0.0768 -0.0198 -0.1257
-0.2518 -0.3899 -0.4865 -0.5417 -0.5178 -0.4387
-0.3549 -0.3098 -0.3438 -0.4304 -0.4828 -0.4175
-0.2905 -0.1745 -0.0926 -0.0843 -0.1653 -0.3080
-0.4792 -0.6540 -0.8252 -0.9882 -1.0986 -1.1658
-1.2146 -1.2634 -1.2984 -1.3177 -1.3766 -1.4659
-1.6030 -1.7494 -1.8718 -1.9675 -1.9841 -1.9565
-1.9206 -1.8617 -1.8120 -1.7890 -1.7457 -1.6638
-1.5708 -1.5055 -1.5193 -1.5828 -1.6325 -1.6445
-1.5810 -1.4420 -1.2404 -1.0462 -0.8501 -0.6320
-0.3972 -0.1101 0.2010 0.5490 0.8629 1.0985
1.2752 1.3746 1.4160 1.4409 1.4897 1.5210
1.4694 1.3866 1.2642 1.1160 1.0396 0.9797
0.9420 0.8978 0.8150 0.7404 0.6235 0.4634
0.2738 -0.0015 -0.2877 -0.4645 -0.6219 -0.7415
-0.8133 -0.9449 -1.0858 -1.2063 -1.2800 -1.3048
-1.3297 -1.3140 -1.2984 -1.3297 -1.3766 -1.4273
-1.4383 -1.4365 -1.3822 -1.2754 -1.0941 -0.8382
-0.6025 -0.3678 -0.2012 -0.0852 0.0261 0.1219
0.2029 0.3023 0.4201 0.5278 0.6318 0.6833
0.7110 0.6806 0.6594 0.7073 0.8012 0.9438
1.0911 1.2476 1.3856 1.5513 1.6977 1.8164
1.9278 2.0023 2.0769 2.1524 2.2389 2.3070
2.3282 2.2499 2.0852 1.8680 1.6268 1.4418
1.3046 1.1960 1.0893 0.9438 0.7919 0.6345
0.5048 0.4201 0.3013 0.2056 0.1559 0.1384
0.1670 0.2139 0.2415 0.2452 0.2415 0.2581
0.2903 0.3013 0.3124 0.3308 0.3547 0.3658
0.3418 0.2295 0.0841 -0.0659 -0.2077 -0.2970
-0.3899 -0.4323 -0.4617 -0.5326 -0.6053 -0.6882
-0.7747 -0.8446 -0.8419 -0.7811 -0.7231 -0.6974
-0.7277 -0.8170 -0.9606 -1.1199 -1.3150 -1.4650
-1.5037 -1.5267 -1.4963 -1.4706 -1.4825 -1.4669
-1.4485 -1.4144 -1.3518 -1.2717 -1.1760 -1.0481
-0.9229 -0.8345 -0.8207 -0.9017 -1.0205 -1.1263
-1.2174 -1.2460 -1.2506 -1.2727 -1.2515 -1.2303
-1.1594 -1.0472 -0.9349 -0.8465 -0.8354 -0.8934
-1.0269 -1.1429 -1.2156 -1.2441 -1.2156 -1.1300
-1.0269 -0.9183 -0.7655 -0.6127 -0.4581 -0.3237
-0.2270 -0.1331 -0.0107 0.1375 0.2921 0.4559
0.5940 0.6851 0.8066 0.9493 1.1012 1.2880
1.4325 1.5531 1.6332 1.6847 1.7151 1.7114
1.7188 1.6958 1.6663 1.6516 1.6903 1.7952
1.9029 1.9646 1.9820 1.9563 1.8974 1.8283
1.7492 1.7197 1.7179 1.6949 1.6194 1.5154
1.3635 1.1389 0.9051 0.6124 0.2948 0.0141
-0.1755 -0.2409 -0.2086 -0.1534 -0.1433 -0.1414
-0.1856 -0.2418 -0.2455 -0.2335 -0.2004 -0.1212
0.0159 0.2102 0.4136 0.5921 0.7569 0.8563
0.8968 0.9263 0.9244 0.9686 1.0340 1.0708
1.0910 1.0275 0.9465 0.8591 0.7541 0.6593
0.5470 0.4283 0.2746 0.1052 -0.1019 -0.3605
-0.5925 -0.7711 -0.9238 -1.0242 -1.0757 -1.1236
-1.1217 -1.1171 -1.1521 -1.2331 -1.3841 -1.5470
-1.6814 -1.7836 -1.8379 -1.8793 -1.8618 -1.7532
-1.6059 -1.4421 -1.3215 -1.2340 -1.1623 -1.1052
-0.9993 -0.8511 -0.7140 -0.5603 -0.4020 -0.2492
-0.1102 -0.0310 0.0454 0.1052 0.1126 0.0518
-0.0632 -0.1406 -0.1682 -0.1378 -0.0356 0.0840
0.1337 0.1264 0.0693 0.0168 -0.0108 -0.0421
-0.0559 -0.0918 -0.1258 -0.1976 -0.3191 -0.4103
-0.4406 -0.3983 -0.3164 -0.2455 -0.2335 -0.3311
-0.4655 -0.5769 -0.6947 -0.7784 -0.8548 -0.9322
-0.9708 -0.9561 -0.8926 -0.7987 -0.6928 -0.6238
-0.5750 -0.5805 -0.6431 -0.7168 -0.8015 -0.8558
-0.8585 -0.8374 -0.8217 -0.7610 -0.6441 -0.4913
-0.3182 -0.1341 0.0592 0.2276 0.3509 0.4402
0.5240 0.6004 0.6934 0.8112 0.9502 1.0809
1.2033 1.3312 1.4205 1.5245 1.6110 1.6773
1.7197 1.6994 1.7012 1.7040 1.7454 1.8237
1.8991 1.9820 2.0022 2.0078 1.9949 1.9857
2.0252 2.0860 2.2020 2.3060 2.3815 2.4082
2.3787 2.3318 2.2876 2.2682 2.2020 2.0897
1.8955 1.6386 1.3699 1.0597 0.7974 0.5801
0.4016 0.2810 0.1760 0.0923 0.0085 -0.1010
-0.1912 -0.2741 -0.3293 -0.2952 -0.2041 -0.0513
0.1770 0.4669 0.7670 1.0542 1.3018 1.4260
1.4748 1.4490 1.3551 1.3027 1.2474 1.2115
1.1977 1.1333 1.0689 0.9731 0.8664 0.7633
0.6105 0.4973 0.4328 0.4107 0.4761 0.5580
0.6583 0.7624 0.8599 1.0339 1.2603 1.4803
1.6349 1.6377 1.5015 1.3008 1.1002 0.9575
0.8875 0.8765 0.9069 0.9437 0.9115 0.8075
0.6556 0.4614 0.2653 0.0785 -0.0918 -0.2787
-0.4434 -0.5732 -0.6717 -0.6855 -0.6690 -0.6800
-0.7509 -0.8521 -0.9607 -1.0878 -1.2065 -1.3096
-1.4136 -1.5370 -1.6373 -1.6916 -1.7118 -1.6916
-1.6161 -1.4909 -1.3501 -1.1605 -0.9156 -0.6515
-0.3560 -0.0624 0.1456 0.2653 0.2947 0.2533
0.1788 0.0232 -0.2023 -0.4913 -0.8190 -1.1237
-1.3455 -1.4219 -1.4265 -1.4228 -1.4440 -1.5434
-1.6686 -1.7606 -1.8251 -1.8508 -1.8591 -1.7956
-1.6649 -1.5655 -1.4560 -1.3501 -1.2645 -1.1587
-1.1034 -1.0473 -0.9856 -0.9433 -0.8908 -0.9166
-0.9598 -1.0528 -1.2323 -1.4330 -1.6576 -1.7984
-1.8407 -1.8637 -1.8435 -1.7542 -1.6539 -1.5038
-1.3013 -1.0979 -0.9175 -0.8025 -0.7472 -0.7122
-0.6598 -0.6312 -0.6451 -0.7067 -0.8411 -1.0132
-1.2102 -1.4302 -1.6576 -1.8886 -2.1113 -2.2835
-2.4160 -2.4740 -2.4933 -2.5394 -2.5633 -2.6167
-2.7354 -2.9213 -3.1358 -3.2914 -3.3917 -3.4046
-3.3337 -3.2647 -3.1579 -3.0548 -3.0162 -2.9978
-3.0751 -3.1736 -3.2500 -3.3199 -3.2813 -3.1690
-3.0318 -2.8855 -2.8045 -2.8017 -2.8312 -2.8974
-2.9646 -2.9904 -2.9453 -2.8146 -2.6572 -2.5412
-2.4657 -2.4216 -2.4464 -2.5164 -2.6029 -2.6646
-2.6848 -2.6866 -2.6480 -2.6020 -2.5918 -2.6590
-2.7925 -2.9462 -3.0861 -3.1570 -3.1441 -3.0401
-2.9370 -2.8533 -2.8146 -2.8551 -2.8533 -2.8146
-2.7253 -2.5633 -2.4114 -2.2890 -2.1565 -2.0248
-1.8840 -1.7358 -1.6364 -1.5913 -1.5840 -1.6383
-1.7772 -1.9218 -2.0727 -2.1749 -2.2237 -2.2863
-2.3185 -2.3249 -2.2448 -2.1169 -1.9466 -1.7423
-1.5481 -1.3400 -1.1320 -0.8761 -0.5779 -0.2429
0.1612 0.5846 0.9878 1.3689 1.7131 2.0472
2.3491 2.6152 2.8453 3.0441 3.2668 3.4693
3.7473 4.0741 4.3613 4.6604 4.8666 5.0056
5.0737 5.0958 5.1243 5.0903 5.0847 5.0847
5.1105 5.1740 5.2173 5.2486 5.2541 5.2467
5.2025 5.1593 5.0875 4.9890 4.8436 4.6392
4.4165 4.1597 3.9130 3.6994 3.5568 3.4546
3.3699 3.2769 3.1361 2.9493 2.7026 2.4449
2.1899 1.9395 1.6974 1.4278 1.1194 0.7853
0.4604 0.2578 0.1649 0.2008 0.4042 0.7043
1.0752 1.4931 1.9165 2.2470 2.5341 2.8627
3.2493 3.6847 4.1422 4.5941 4.9807 5.3075
5.5836 5.8238 5.9895 6.0678 6.0696 6.0088
5.9131 5.7622 5.5781 5.3645 5.0930 4.7432
4.3180 3.8163 3.2825 2.7440 2.1770 1.5879
1.0172 0.4659 -0.0855 -0.6286 -1.1541 -1.6309
-2.1142 -2.5974 -3.0484 -3.4709 -3.7949 -3.9634
-4.0250 -4.0158 -3.9698 -4.0048 -4.0517 -4.1217
-4.2653 -4.3932 -4.5672 -4.7780 -4.9786 -5.2088
-5.4011 -5.5530 -5.6773 -5.7656 -5.8706 -5.9709
-6.0473 -6.0979 -6.0841 -5.9893 -5.8917 -5.7896
-5.7141 -5.6892 -5.6082 -5.4766 -5.2575 -4.9501
-4.5654 -4.1650 -3.7489 -3.3430 -3.0264 -2.7346
-2.5661 -2.4465 -2.3544 -2.3057 -2.2339 -2.1234
-1.9053 -1.6300 -1.3097 -0.9784 -0.6553 -0.3690
-0.1794 -0.0689 -0.0091 -0.0137 -0.0607 -0.1951
-0.4776 -0.8541 -1.3548 -1.9154 -2.4999 -3.0678
-3.5685 -4.0435 -4.4503 -4.7890 -5.0910 -5.3450
-5.5503 -5.7482 -5.9589 -6.1633 -6.3317 -6.4652
-6.5167 -6.4744 -6.3732 -6.2176 -6.0851 -5.9866
-5.9359 -5.9451 -5.9856 -6.0547 -6.1274 -6.1697
-6.1891 -6.1651 -6.0860 -5.9571 -5.7832 -5.6083
-5.4297 -5.2879 -5.1186 -4.8507 -4.4872 -3.9349
-3.2574 -2.5662 -1.9007 -1.3493 -0.9443 -0.5918
-0.2991 -0.0183 0.2596 0.5238 0.8570 1.1700
1.5161 1.9137 2.3371 2.8378 3.3873 3.9746
4.5747 5.1491 5.6940 6.1864 6.5942 6.9412
7.1492 7.2624 7.3020 7.2505 7.1640 6.9900
6.7240 6.3687 5.9756 5.5403 5.0791 4.5959
4.0860 3.5300 2.9280 2.3822 1.8428 1.3844
1.0853 0.9306 0.9702 1.1773 1.5252 2.0297
2.6307 3.3054 4.0086 4.6622 5.2586 5.7244
6.1091 6.4175 6.5905 6.6632 6.6071 6.4285
6.1478 5.8256 5.5182 5.2522 5.0073 4.7459
4.4376 4.0924 3.6855 3.2060 2.7550 2.2855
1.7830 1.3172 0.8496 0.3747 -0.0184 -0.3405
-0.6102 -0.7621 -0.8854 -0.9821 -1.0456 -1.1671
-1.3199 -1.4764 -1.5970 -1.6476 -1.6669 -1.6706
-1.6476 -1.6154 -1.5905 -1.5491 -1.4718 -1.3853
-1.3245 -1.3135 -1.3770 -1.5546 -1.8436 -2.2809
-2.8644 -3.5005 -4.1558 -4.8057 -5.4463 -6.0869
-6.7285 -7.3038 -7.8146 -8.2270 -8.4847 -8.6697
-8.7461 -8.7084 -8.5703 -8.3237 -7.9398 -7.4317
-6.8261 -6.1035 -5.2825 -4.3675 -3.4360 -2.4640
-1.5408 -0.7051 0.0129 0.5311 0.9665 1.2555
1.4599 1.6127 1.6044 1.5068 1.2776 0.9168
0.4989 -0.0340 -0.5817 -1.0373 -1.4028 -1.7056
-1.9965 -2.2395 -2.5018 -2.7512 -3.0182 -3.3238
-3.6063 -3.9349 -4.2773 -4.6317 -4.9981 -5.3699
-5.6985 -5.9986 -6.2674 -6.5049 -6.7543 -6.9237
-7.0286 -7.0663 -7.0912 -7.1004 -7.1234 -7.2191
-7.3305 -7.4741 -7.5974 -7.6849 -7.6674 -7.5348
-7.3406 -7.0093 -6.6052 -6.1707 -5.6590 -5.1407
-4.5664 -3.9221 -3.2649 -2.5718 -1.9330 -1.3043
-0.6526 0.0690 0.9076 1.7958 2.7337 3.7011
4.7523 5.8661 7.0544 8.2887 9.4899 10.6892
11.8085 12.8302 13.7461 14.5441 15.2547 15.8199
16.1871 16.3436 16.2663 15.9901 15.5428 15.0485
14.5754 14.1308 13.7893 13.4819 13.2315 12.9489
12.6148 12.2724 11.8628 11.4440 11.0123 10.5760
10.0826 9.5525 9.0278 8.5390 8.1110 7.7456
7.4952 7.3139 7.1758 7.0728 6.9881 6.9181
6.8896 6.8408 6.7847 6.7635 6.7119 6.6346
6.5196 6.4606 6.4192 6.4211 6.5278 6.6493
6.7626 6.7819 6.6898 6.4947 6.2858 6.0906
5.9433 5.9535 6.0326 6.2002 6.4754 6.7929
7.2311 7.7612 8.4000 9.1613 9.9841 10.8705
11.6897 12.3985 12.9011 13.1606 13.2379 13.1229
12.9379 12.7437 12.5448 12.3423 12.1518 11.9014
11.6161 11.2985 10.8853 10.4306 9.8810 9.2533
8.5132 7.6222 6.6861 5.7510 4.8029 3.8751
2.9307 1.9578 0.9609 -0.1077 -1.2215 -2.3914
-3.6110 -4.8490 -6.0438 -7.1962 -8.3145 -9.3878
-10.4583 -11.4744 -12.3885 -13.1681 -13.7719 -14.1336
-14.2248 -14.0775 -13.7507 -13.3421 -12.9674 -12.6600
-12.4584 -12.3305 -12.1906 -12.0737 -11.9292 -11.7248
-11.4432 -11.0989 -10.6856 -10.2374 -9.7863 -9.3132
-8.8429 -8.3136 -7.7899 -7.2551 -6.7580 -6.3199
-5.9462 -5.6701 -5.4574 -5.2586 -5.0939 -4.9908
-4.7956 -4.6392 -4.5158 -4.4403 -4.3280 -4.1430
-3.9820 -3.7785 -3.6156 -3.4720 -3.3128 -3.0689
-2.7559 -2.2506 -1.5961 -0.8662 -0.0074 0.8845
1.8298 2.7696 3.7508 4.7734 5.7666 6.6990
7.5836 8.3926 9.1262 9.8249 10.4130 10.9303
11.4255 11.8830 12.2631 12.5660 12.7427 12.7584
12.6553 12.4702 12.3064 12.1472 12.0349 12.0073
11.9833 11.8609 11.6612 11.4007 11.0316 10.6708
10.3468 10.0780 9.8175 9.5091 9.0839 8.4948
7.8118 7.0488 6.2636 5.4628 4.6335 3.7664
2.7990 1.7028 0.5126 -0.7733 -2.1632 -3.6028
-5.0433 -6.3733 -7.4917 -8.3854 -9.0749 -9.6750
-10.2374 -10.7418 -11.1864 -11.5141 -11.7129 -11.7608
-11.6890 -11.6089 -11.5251 -11.4837 -11.4901 -11.4616
-11.3797 -11.1938 -10.8247 -10.2291 -9.4504 -8.4922
-7.4190 -6.2656 -5.0792 -3.9571 -2.9005 -1.9008
-0.9749 -0.1382 0.6378 1.3060 1.9154 2.4124
2.8165 3.1810 3.4415 3.6136 3.6651 3.6210
3.4139 3.0991 2.6757 2.1142 1.4883 0.8127
0.1610 -0.4189 -0.9141 -1.2841 -1.5189 -1.6910
-1.8116 -1.9690 -2.2156 -2.5608 -2.9805 -3.4463
-3.9360 -4.4045 -4.7975 -5.0240 -5.1501 -5.1409
-5.0470 -4.9356 -4.8104 -4.7497 -4.7073 -4.6337
-4.5057 -4.3217 -4.0326 -3.6359 -3.1564 -2.5958
-1.9901 -1.3900 -0.7770 -0.1787 0.3625 0.9167
1.4432 1.9715 2.4593 2.8708 3.2712 3.6035
3.9081 4.2312 4.6114 5.0513 5.5502 6.1402
6.8076 7.5780 8.4377 9.3499 10.3228 11.2874
12.2263 13.2167 14.1933 15.1312 16.0683 16.9178
17.6211 18.1770 18.5102 18.6253 18.5249 18.1043
17.3643 16.2772 14.8339 13.0823 11.1236 9.0120
6.8315 4.6933 2.6453 0.7546 -1.0255 -2.5848
-3.9139 -5.0857 -6.0659 -6.8640 -7.5120 -8.1204
-8.7058 -9.3685 -10.1841 -11.1330 -12.2238 -13.3891
-14.6050 -15.7639 -16.8150 -17.7907 -18.6265 -19.4079
-20.1498 -20.8475 -21.5544 -22.1831 -22.7105 -23.0612
-23.2380 -23.2315 -23.0051 -22.5725 -21.9972 -21.3943
-20.6809 -19.9584 -19.3076 -18.6375 -17.9628 -17.3866
-16.8491 -16.3290 -15.8034 -15.1554 -14.4136 -13.4830
-12.3646 -11.0659 -9.6935 -8.2272 -6.6689 -5.0894
-3.5651 -2.1108 -0.5377 1.0722 2.7695 4.3554
5.7886 7.0809 8.3613 9.6490 10.6053 11.3555
11.8424 12.1986 12.2925 12.1342 11.6850 10.9422
10.2878 9.6563 9.2200 8.8426 8.4671 8.1505
7.7979 7.4887 7.2144 6.8637 6.4163 5.8999
5.2188 4.3987 3.3438 2.1298 0.8586 -0.4714
-1.7049 -2.8517 -3.9756 -5.0019 -5.9859 -6.9570
-7.8443 -8.7408 -9.5840 -10.3479 -11.0512 -11.6246
-12.0149 -12.1833 -12.2100 -12.0425 -11.7139 -11.2923
-10.7299 -10.1243 -9.5057 -8.8550 -8.2162 -7.6574
-7.1245 -6.6781 -6.3486 -6.0503 -5.8469 -5.6647
-5.5284 -5.4226 -5.3011 -5.2238 -5.1372 -5.0526
-4.9430 -4.8565 -4.7166 -4.5399 -4.4147 -4.2324
-4.1137 -4.0263 -3.9057 -3.7906 -3.6093 -3.4721
-3.3488 -3.1380 -2.9493 -2.7165 -2.4385 -2.2010
-2.0040 -1.8761 -1.8245 -1.8411 -1.8420 -1.7721
-1.6174 -1.4011 -1.1471 -0.8912 -0.6252 -0.3260
0.0136 0.4306 0.8706 1.3133 1.6879 1.9576
2.1159 2.1371 2.0846 1.9309 1.7422 1.5535
1.3124 1.1108 0.9838 1.0399 1.4072 2.0948
3.1119 4.3729 5.7839 7.2742 8.7588 10.1395
11.3812 12.4683 13.4062 14.2650 15.0410 15.7479
16.3222 16.6858 16.8874 16.8993 16.7714 16.5965
16.3139 15.9292 15.4321 14.7630 13.9999 13.2092
12.3974 11.5561 10.6826 9.7189 8.6465 7.4601
6.1549 4.8340 3.5242 2.2825 1.1559 0.2004
-0.5958 -1.3487 -2.0602 -2.6999 -3.2154 -3.5458
-3.6977 -3.6922 -3.5256 -3.2540 -2.8877 -2.4956
-2.1182 -1.7647 -1.5227 -1.3137 -1.0919 -0.8829
-0.7016 -0.5258 -0.4154 -0.4117 -0.5111 -0.7219
-0.9805 -1.2401 -1.4279 -1.5558 -1.5586 -1.4849
-1.3975 -1.2723 -1.1941 -1.1241 -1.0781 -1.0081
-0.7826 -0.3454 0.2869 1.1328 2.0956 3.0676
4.0746 5.0457 5.9873 6.9354 7.9065 8.9006
9.9517 11.0498 12.1406 13.1963 14.1177 14.8946
15.5067 15.9319 16.2338 16.4428 16.5081 16.4934
16.4501 16.3931 16.4078 16.4934 16.7069 17.0346
17.5261 18.1373 18.7283 19.3450 19.9037 20.3473
20.6851 20.9235 21.0819 21.1242 21.0819 20.9935
20.8030 20.5609 20.2875 19.9810 19.7113 19.4029
19.0421 18.5745 17.9403 17.1865 16.2982 15.3023
14.2686 13.2101 12.1286 11.1465 10.2637 9.4344
8.7109 8.0694 7.5309 7.0863 6.6997 6.3592
5.9993 5.6513 5.3006 4.9371 4.5496 4.0424
3.5039 2.9121 2.3055 1.7403 1.2074 0.7757
0.3808 0.0467 -0.2920 -0.6584 -1.0330 -1.4086
-1.7574 -2.0906 -2.3787 -2.6641 -2.9881 -3.3793
-3.8174 -4.2767 -4.7756 -5.2966 -5.8921 -6.5226
-7.1347 -7.8232 -8.5044 -9.2103 -9.9798 -10.7309
-11.5188 -12.3583 -13.2493 -14.2287 -15.3295 -16.4405
-17.5524 -18.5935 -19.4670 -20.2227 -20.8302 -21.3079
-21.6669 -21.9752 -22.1474 -22.2422 -22.3130 -22.3066
-22.3287 -22.2587 -22.1602 -22.0028 -21.6917 -21.3742
-21.0290 -20.5614 -20.0487 -19.5010 -18.7601 -17.8893
-16.8989 -15.8220 -14.7671 -13.7353 -12.7753 -11.8263
-10.9270 -10.0415 -9.0769 -8.0046 -6.7896 -5.6556
-4.5298 -3.3866 -2.3254 -1.3801 -0.6952 -0.2884
-0.1282 -0.0031 -0.0003 -0.2129 -0.5562 -0.9456
-1.3727 -1.9194 -2.5159 -3.1952 -3.8588 -4.5483
-5.1613 -5.6620 -6.1637 -6.4803 -6.8789 -7.1789
-7.3603 -7.6373 -7.8076 -8.0709 -8.3111 -8.5274
-8.7778 -9.1588 -9.6301 -10.1612 -10.7862 -11.3164
-11.9717 -12.5268 -13.0680 -13.6866 -14.2140 -14.7239
-15.1805 -15.5256 -15.7143 -15.9076 -15.8864 -15.7815
-15.6821 -15.3645 -15.0185 -14.5785 -13.9885 -13.4445
-12.9428 -12.4936 -12.2166 -11.9929 -11.8134 -11.6892
-11.5437 -11.4103 -11.3274 -11.2289 -11.1038 -10.9675
-10.7485 -10.4475 -10.1023 -9.6789 -9.2095 -8.7179
-8.1307 -7.5839 -6.9470 -6.2143 -5.4641 -4.6983
-4.0015 -3.4419 -2.9808 -2.4809 -2.0778 -1.6332
-1.2319 -0.6962 -0.0077 0.7480 1.7007 2.7261
3.8472 4.9655 6.1989 7.4581 8.8232 10.2480
11.7134 13.2193 14.7030 16.2356 17.6052 18.9436
20.1540 21.1950 22.0068 22.5582 22.9816 23.1473
23.1786 23.1519 23.0515 22.8251 22.5030 22.1274
21.6248 21.1241 20.6482 20.2037 19.8115 19.5382
19.4176 19.3127 19.3311 19.4682 19.6146 19.7885
20.0058 20.1917 20.2699 20.2405 20.1125 19.8622
19.4829 19.0089 18.3968 17.6568 16.8753 16.0331
15.0482 13.9989 12.8750 11.7014 10.5674 9.4960
8.4835 7.4176 6.3213 5.1671 3.9097 2.6137
1.3196 0.0273 -1.2181 -2.4322 -3.6251 -4.8153
-6.0404 -7.2259 -8.4529 -9.5593 -10.4843 -11.2805
-11.7877 -12.0868 -12.1375 -11.9202 -11.4941 -10.8461
-10.0674 -9.1755 -8.1970 -7.1689 -6.1177 -5.1494
-4.2731 -3.5413 -3.0250 -2.7258 -2.6522 -2.7433
-2.9790 -3.3020 -3.7144 -4.2860 -4.9285 -5.5443
-6.0910 -6.5089 -6.7501 -6.8504 -6.7786 -6.5163
-6.0293 -5.3003 -4.3615 -3.1769 -1.8219 -0.3271
1.2984 2.9230 4.4105 5.7663 6.9601 7.9496
8.8158 9.5512 10.1605 10.7036 11.2237 11.7327
12.2021 12.6172 12.9744 13.2201 13.3637 13.3978
13.2882 13.0793 12.7442 12.3236 11.8045 11.1620
10.3630 9.3376 8.1171 6.7999 5.4579 4.1361
2.9580 1.9298 1.0904 0.4341 -0.1569 -0.6742
-1.2117 -1.8054 -2.3788 -2.9550 -3.4190 -3.7006
-3.8755 -3.8746 -3.7917 -3.6776 -3.5220 -3.3646
-3.1824 -2.9845 -2.7074 -2.3908 -2.0594 -1.7474
-1.4851 -1.2798 -1.1325 -0.9669 -0.7193 -0.3566
0.0889 0.6154 1.1437 1.6978 2.2879 2.9009
3.6363 4.4436 5.3235 6.2937 7.3135 8.3518
9.3487 10.3069 11.1942 11.9812 12.7240 13.3609
13.9371 14.3891 14.6330 14.7462 14.6671 14.4250
14.0467 13.5745 13.0213 12.3991 11.7133 10.9199
10.0381 9.0863 8.1521 7.1884 6.2467 5.3566
4.4693 3.6630 2.9239 2.2556 1.6076 0.9532
0.3181 -0.2903 -0.7966 -1.1749 -1.4013 -1.4151
-1.2881 -1.0543 -0.7561 -0.4754 -0.2048 0.0097
0.1736 0.2730 0.2997 0.2389 0.0824 -0.1422
-0.4533 -0.8325 -1.2568 -1.7023 -2.1359 -2.5197
-2.9063 -3.2920 -3.7099 -4.1682 -4.6183 -5.1007
-5.5609 -5.9668 -6.3092 -6.6222 -6.9048 -7.1349
-7.3457 -7.5031 -7.6393 -7.7792 -7.9964 -8.3443
-8.7632 -9.2758 -9.8907 -10.5304 -11.1683 -11.8237
-12.4919 -13.1712 -13.8873 -14.6062 -15.3343 -16.0983
-16.8641 -17.6943 -18.5375 -19.3364 -20.1216 -20.8303
-21.4406 -21.9708 -22.4190 -22.8075 -23.1213 -23.3818
-23.6552 -23.8807 -24.1955 -24.4993 -24.6677 -24.8932
-25.0138 -24.8877 -24.5987 -24.1918 -23.5512 -22.7237
-21.7692 -20.6122 -19.3604 -18.0450 -16.6450 -15.1935
-13.7373 -12.3078 -11.0063 -9.7950 -8.6481 -7.6117
-6.5163 -5.4974 -4.4785 -3.4089 -2.4203 -1.5974
-0.9835 -0.3935 0.1201 0.6144 0.9670 1.2394
1.5128 1.8138 2.2694 2.6946 3.1641 3.7136
4.3671 4.9129 5.3971 5.8813 6.1335 6.2559
6.1868 5.9972 5.7947 5.5388 5.2572 4.9636
4.7316 4.5650 4.4223 4.3229 4.2631 4.2401
4.2889 4.4371 4.6258 4.8144 4.9728 5.0749
5.1789 5.1771 5.1228 5.0142 4.7555 4.5779
4.4242 4.2833 4.2428 4.1802 4.0799 3.9796
3.8498 3.6629 3.4697 3.2533 3.0370 2.8410
2.7296 2.7268 2.8244 3.0573 3.4476 3.9759
4.5493 5.1338 5.6474 6.0396 6.2844 6.4602
6.5210 6.4713 6.3682 6.1620 5.9843 5.8242
5.6815 5.5922 5.5397 5.5545 5.6603 5.9061
6.3240 6.9167 7.6375 8.4152 9.1847 9.8650
10.3832 10.7762 11.0284 11.1803 11.2604 11.2484
11.1932 11.0450 10.7845 10.4734 10.1475 9.7609
9.3679 9.0016 8.6251 8.2818 7.9725 7.7231
7.5261 7.3650 7.2868 7.2886 7.3972 7.5979
7.8528 8.2275 8.6223 9.0283 9.4517 9.7987
10.1116 10.3795 10.5792 10.6851 10.7486 10.7863
10.7523 10.7081 10.6961 10.6676 10.6096 10.5553
10.4780 10.3786 10.2156 10.0555 9.8981 9.7306
9.5888 9.4047 9.2326 9.0126 8.7263 8.3499
7.8519 7.2555 6.5311 5.7395 4.8972 4.0652
3.2110 2.3595 1.5339 0.5978 -0.3880 -1.2588
-2.1010 -3.0288 -3.8756 -4.7059 -5.5674 -6.3185
-7.0061 -7.6532 -8.1447 -8.5202 -8.8617 -9.0744
-9.2308 -9.3275 -9.3514 -9.4223 -9.4812 -9.5042
-9.5088 -9.4398 -9.3431 -9.2502 -9.1452 -9.1158
-9.1590 -9.2373 -9.3256 -9.3643 -9.3183 -9.1765
-8.9685 -8.7108 -8.4162 -8.1217 -7.8317 -7.4608
-7.0365 -6.5845 -6.0976 -5.6401 -5.2950 -5.1146
-5.0465 -5.0814 -5.1827 -5.2849 -5.3879 -5.4588
-5.5177 -5.5656 -5.5693 -5.5950 -5.6245 -5.6567
-5.7083 -5.7561 -5.8316 -5.9126 -6.0194 -6.1004
-6.1436 -6.1611 -6.1114 -5.9743 -5.7258 -5.3438
-4.8127 -4.1840 -3.4228 -2.6211 -1.8019 -0.9431
-0.0834 0.8150 1.7299 2.6283 3.4917 4.4075
5.3050 6.0736 6.7206 7.2784 7.7147 7.9467
7.9955 7.8123 7.4552 6.9194 6.2273 5.4891
4.6653 3.7963 2.8943 1.9619 1.0212 0.1384
-0.6439 -1.2938 -1.7844 -2.1756 -2.4848 -2.7582
-3.0417 -3.3289 -3.6152 -3.8453 -4.0257 -4.1113
-3.9981 -3.7753 -3.4219 -2.9837 -2.5014 -1.9611
-1.4475 -0.9560 -0.5022 -0.0631 0.3281 0.6686
0.9374 1.0920 1.1371 1.0709 0.9043 0.6806
0.4265 0.0611 -0.3549 -0.8087 -1.3232 -1.8700
-2.4655 -3.1071 -3.7873 -4.5292 -5.3585 -6.2155
-7.0623 -7.8751 -8.5976 -9.1664 -9.5963 -9.8476
-9.9350 -9.9175 -9.7555 -9.5291 -9.2530 -8.9575
-8.6464 -8.2764 -7.8907 -7.4581 -6.9841 -6.5330
-6.0820 -5.6209 -5.2435 -4.9176 -4.5541 -4.2475
-4.0082 -3.8646 -3.8886 -3.9733 -4.1794 -4.4740
-4.8145 -5.1993 -5.5638 -5.9734 -6.3628 -6.7236
-7.0273 -7.3136 -7.5382 -7.6947 -7.8263 -7.8640
-7.9091 -7.8815 -7.7830 -7.5980 -7.3081 -6.9795
-6.6288 -6.3103 -6.0250 -5.8261 -5.7166 -5.6733
-5.6761 -5.7359 -5.7810 -5.7728 -5.7111 -5.5684
-5.4027 -5.1699 -4.9011 -4.5992 -4.2273 -3.7634
-3.2102 -2.6073 -2.0007 -1.4650 -0.9763 -0.5685
-0.1810 0.2424 0.7118 1.2540 1.8311 2.4681
3.1170 3.7696 4.4084 5.0398 5.6326 6.1609
6.6534 7.0556 7.4155 7.7248 7.9972 8.2651
8.4998 8.7124 8.8873 8.9950 9.0806 9.1377
9.1377 9.1303 9.1110 9.0825 9.0429 8.9637
8.8247 8.6167 8.3056 7.9650 7.6189 7.3069
7.0952 6.9185 6.8319 6.8062 6.8071 6.8927
7.0547 7.2544 7.5195 7.7966 8.0479 8.2955
8.4980 8.7244 8.9628 9.2058 9.4451 9.6320
9.7581 9.7673 9.6540 9.4469 9.1911 8.8938
8.5624 8.1979 7.8223 7.4035 6.9295 6.4868
6.0808 5.7237 5.4899 5.3960 5.3748 5.4172
5.4991 5.5958 5.6694 5.6491 5.5976 5.5516
5.4715 5.4080 5.3656 5.2938 5.2156 5.0959
4.9349 4.7158 4.4479 4.1534 3.7972 3.4262
3.0203 2.6190 2.2646 1.9388 1.6626 1.4178
1.1987 0.9705 0.7514 0.5323 0.3068 0.1154
-0.0641 -0.2445 -0.4185 -0.5851 -0.7959 -1.0647
-1.3749 -1.7541 -2.1315 -2.4628 -2.7463 -2.8817
-2.8596 -2.6699 -2.3349 -1.9317 -1.5129 -1.1125
-0.7674 -0.4958 -0.2574 -0.0964 0.0030 0.0491
0.0620 -0.0034 -0.1608 -0.3725 -0.6569 -0.9395
-1.2156 -1.4448 -1.6160 -1.6694 -1.6400 -1.5719
-1.4283 -1.2801 -1.0923 -0.8815 -0.6486 -0.3780
-0.1028 0.1549 0.3620 0.5332 0.7072 0.8692
1.0606 1.2990 1.5310 1.7988 2.0483 2.3143
2.5785 2.8390 3.1261 3.3627 3.5854 3.7162
3.7594 3.7410 3.6591 3.5615 3.4676 3.3829
3.3148 3.3010 3.3001 3.2927 3.2835 3.2881
3.2983 3.3277 3.3931 3.4741 3.5238 3.5348
3.5238 3.4888 3.4584 3.4317 3.4483 3.5146
3.6250 3.8017 4.0171 4.2629 4.5427 4.8124
5.0692 5.3159 5.5129 5.6758 5.7595 5.7089
5.5423 5.2708 4.8695 4.3779 3.8137 3.1694
2.4017 1.4684 0.4384 -0.7306 -2.0082 -3.3318
-4.7014 -6.1051 -7.4812 -8.7422 -9.9738 -11.1317
-12.1866 -13.1172 -13.8940 -14.5521 -15.0510 -15.4652
-15.7957 -16.0571 -16.3351 -16.5946 -16.8699 -17.1534
-17.3632 -17.5234 -17.6044 -17.6136 -17.5482 -17.3724
-17.1276 -16.8082 -16.4161 -15.9411 -15.4367 -14.8881
-14.3395 -13.8314 -13.3151 -12.9082 -12.5520 -12.2473
-12.0264 -11.8681 -11.7494 -11.6748 -11.6463 -11.6518
-11.7264 -11.8009 -11.9022 -11.8801 -11.7521 -11.5570
-11.3407 -11.0876 -10.6807 -10.2279 -9.6673 -9.0966
-8.4891 -7.8015 -7.0017 -6.1742 -5.3605 -4.4428
-3.6254 -2.7805 -1.9815 -1.2553 -0.4416 0.3086
0.9474 1.2824 1.6110 1.9534 2.1458 2.3842
2.4652 2.5563 2.5775 2.6475 2.8003 2.8564
3.0221 3.0727 3.1850 3.2918 3.4004 3.5559
3.6710 3.9039 4.0935 4.3945 4.6071 4.7728
4.9053 4.9155 4.9946 4.9983 5.1041 5.1704
5.2459 5.3978 5.4990 5.6316 5.7347 5.8129
5.8396 5.8911 5.9353 5.9859 5.9887 5.9924
6.0458 6.0642 6.1074 6.1010 6.0246 5.8810
5.6941 5.4751 5.2192 4.9495 4.6853 4.4083
4.1588 3.9388 3.7216 3.5762 3.4740 3.4740
3.5651 3.6968 3.8753 4.0382 4.2131 4.4193
4.6439 4.9154 5.2081 5.4788 5.7162 5.9362
6.1001 6.1967 6.2694 6.2814 6.2308 6.1203
5.9951 5.8451 5.6582 5.5588 5.5285 5.5533
5.6288 5.7171 5.8184 5.8902 5.9353 5.9537
5.9344 5.8469 5.6794 5.4815 5.2201 4.8749
4.4672 3.9453 3.3470 2.6787 1.9746 1.2870
0.5966 0.0177 -0.4904 -0.9249 -1.2802 -1.5996
-1.8647 -2.1049 -2.3332 -2.5642 -2.7741 -3.0198
-3.2509 -3.4524 -3.6402 -3.7912 -3.9228 -4.0360
-4.1455 -4.2312 -4.3269 -4.4134 -4.5395 -4.7043
-4.8930 -5.1323 -5.4139 -5.7094 -5.9266 -6.0942
-6.1613 -6.1613 -6.1641 -6.1429 -6.1457 -6.1420
-6.1061 -6.0665 -6.0012 -5.9128 -5.8208 -5.6882
-5.5741 -5.4498 -5.3210 -5.2087 -5.1010 -5.0439
-5.0191 -5.0826 -5.1958 -5.3514 -5.5226 -5.7113
-5.9635 -6.2147 -6.4900 -6.7532 -6.9990 -7.2751
-7.5512 -7.8504 -8.1910 -8.5150 -8.8426 -9.1335
-9.3793 -9.6361 -9.9039 -10.2058 -10.5317 -10.8704
-11.1530 -11.3619 -11.4439 -11.3813 -11.2045 -10.8658
-10.4047 -9.8220 -9.1114 -8.3116 -7.4371 -6.4771
-5.4213 -4.3039 -3.1377 -1.9135 -0.6911 0.5009
1.6625 2.7542 3.7556 4.6862 5.5468 6.3191
7.0600 7.7789 8.4969 9.2323 9.9383 10.6471
11.3153 11.9329 12.5202 13.0531 13.5805 14.0711
14.5093 14.9170 15.2502 15.4730 15.5936 15.6046
15.4942 15.2742 14.9502 14.5415 14.0757 13.5897
13.0476 12.4493 11.8354 11.1947 10.5430 9.8941
9.2572 8.6543 8.0992 7.5930 7.1171 6.6421
6.1948 5.7677 5.3793 5.0590 4.7994 4.5545
4.2941 4.0280 3.7031 3.3184 2.8499 2.3335
1.7775 1.1728 0.5883 -0.0082 -0.5586 -1.0418
-1.4625 -1.7782 -2.0166 -2.1455 -2.1740 -2.1427
-2.0378 -1.9135 -1.8058 -1.7285 -1.6779 -1.6272
-1.5766 -1.5269 -1.5241 -1.5683 -1.6355 -1.7156
-1.8638 -2.0368 -2.2007 -2.3848 -2.5403 -2.7069
-2.8975 -3.0696 -3.1791 -3.2923 -3.3687 -3.4111
-3.4847 -3.5050 -3.5344 -3.6274 -3.7876 -3.9385
-4.1180 -4.4310 -4.7899 -5.1940 -5.6469 -6.0694
-6.5406 -7.0266 -7.4915 -8.0078 -8.4966 -8.9798
-9.4014 -9.7843 -10.1562 -10.5106 -10.8659 -11.1392
-11.3546 -11.4770 -11.5424 -11.5507 -11.5194 -11.5341
-11.5673 -11.6216 -11.6694 -11.7053 -11.7385 -11.7523
-11.7182 -11.6565 -11.5903 -11.4467 -11.2129 -10.9321
-10.5980 -10.2225 -9.8368 -9.4475 -9.0259 -8.5463
-7.9895 -7.3175 -6.5996 -5.8411 -5.0688 -4.3794
-3.7471 -3.1920 -2.7327 -2.3323 -1.9697 -1.6908
-1.4956 -1.3631 -1.3162 -1.2784 -1.2480 -1.2158
-1.1173 -0.9664 -0.7712 -0.5126 -0.2530 0.0148
0.3407 0.6840 1.1037 1.5750 2.0711 2.5728
3.0505 3.4923 3.8872 4.2839 4.6880 5.1325
5.5716 6.0291 6.4608 6.8722 7.2947 7.6242
7.9399 8.2326 8.5032 8.7389 8.9138 9.0822
9.1871 9.2654 9.3409 9.4154 9.5369 9.6741
9.8582 10.0478 10.2033 10.3405 10.4518 10.5743
10.6534 10.7722 10.9010 10.9747 11.0897 11.1762
11.2250 11.2646 11.3106 11.3557 11.3889 11.4616
11.5969 11.7552 11.9494 12.1565 12.3194 12.4566
12.5247 12.5357 12.4547 12.3342 12.1998 11.9761
11.7313 11.4358 11.1035 10.7896 10.4592 10.1122
9.7670 9.3952 9.0049 8.5861 8.1194 7.6371
7.1179 6.5601 5.9904 5.4087 4.8453 4.3096
3.7454 3.1894 2.6344 2.0656 1.5087 0.9141
0.2854 -0.3727 -1.0419 -1.7589 -2.5266 -3.2998
-4.0766 -4.8507 -5.6147 -6.3354 -7.0258 -7.6747
-8.2868 -8.8695 -9.4144 -9.9086 -10.3440 -10.6920
-10.9478 -11.1476 -11.3197 -11.4882 -11.6492 -11.7993
-11.9024 -12.0754 -12.2043 -12.2070 -12.2181 -12.1362
-12.0266 -11.8821 -11.6363 -11.3980 -11.1568 -10.8742
-10.5953 -10.3045 -10.0136 -9.7329 -9.3932 -9.0609
-8.7406 -8.4359 -8.1524 -7.8791 -7.6443 -7.4299
-7.2154 -6.9503 -6.7018 -6.4183 -6.1679 -5.9461
-5.6166 -5.2806 -4.8756 -4.4053 -3.8778 -3.3099
-2.7411 -2.1354 -1.5933 -1.1027 -0.6369 -0.2264
0.1933 0.5854 0.9435 1.3126 1.6578 2.0057
2.3407 2.7071 3.1167 3.5696 4.0776 4.6327
5.2107 5.7547 6.2867 6.7405 7.0977 7.3830
7.6057 7.7843 7.9408 8.0236 8.0476 8.0586
7.9896 7.8874 7.7631 7.5873 7.3986 7.1851
6.9117 6.6199 6.2987 5.9646 5.6396 5.3249
5.0478 4.7717 4.5296 4.2801 4.0657 3.8742
3.6754 3.5189 3.3367 3.1802 3.0329 2.8939
2.7218 2.4493 2.1161 1.7167 1.2739 0.7898
0.3019 -0.1344 -0.4869 -0.7649 -0.9803 -1.1579
-1.2905 -1.4414 -1.5887 -1.6780 -1.7608 -1.7728
-1.7258 -1.6172 -1.4948 -1.3365 -1.1662 -1.0143
-0.8284 -0.6268 -0.3838 -0.1454 0.0994 0.3350
0.5523 0.7529 0.9297 1.1202 1.3365 1.6126
1.9523 2.3518 2.8184 3.3449 3.9000 4.4734
5.0413 5.6194 6.1606 6.6733 7.1538 7.5284
7.8717 8.1709 8.4332 8.6983 8.9708 9.2312
9.4347 9.5166 9.4908 9.3831 9.1732 8.8815
8.5262 8.1313 7.7106 7.2771 6.8040 6.2692
5.6295 4.9152 4.1356 3.3044 2.4493 1.5270
0.6112 -0.3369 -1.2997 -2.2358 -3.1829 -4.0979
-5.0110 -5.9057 -6.7331 -7.5174 -8.2666 -8.9653
-9.6326 -10.2401 -10.7730 -11.2563 -11.6603 -11.9926
-12.2734 -12.4473 -12.5118 -12.5403 -12.5339 -12.4869
-12.4087 -12.3535 -12.3286 -12.3212 -12.3479 -12.3553
-12.3608 -12.3516 -12.2945 -12.2347 -12.1629 -12.1105
-12.0718 -11.9963 -11.9531 -11.8831 -11.7745 -11.6429
-11.4358 -11.2029 -10.9111 -10.6009 -10.2603 -9.9189
-9.6031 -9.3123 -9.0730 -8.8208 -8.5787 -8.3458
-8.1507 -7.9160 -7.6591 -7.3941 -7.0958 -6.7792
-6.4156 -6.0327 -5.5670 -5.1030 -4.5986 -4.0427
-3.4232 -2.7393 -2.0223 -1.2215 -0.4161 0.4528
1.3438 2.2744 3.2004 4.0592 4.8940 5.6589
6.3364 6.9632 7.5597 8.0705 8.5712 9.0186
9.4144 9.7669 10.0559 10.3229 10.5235 10.6984
10.8245 10.9018 10.9184 10.8825 10.8208 10.7233
10.6312 10.5428 10.4517 10.3790 10.3348 10.2952
10.2363 10.1599 10.0568 9.8976 9.7015 9.4714
9.2155 8.9569 8.7102 8.5123 8.3236 8.1699
8.0466 7.9205 7.8128 7.6710 7.5191 7.3709
7.1924 7.0295 6.8039 6.5149 6.2241 5.8467
5.4122 4.9271 4.4016 3.8907 3.3412 2.7595
2.2228 1.6696 1.0925 0.5605 0.0128 -0.5229
-1.0347 -1.5520 -2.0435 -2.4927 -2.8894 -3.2392
-3.5521 -3.8365 -4.0712 -4.2590 -4.3989 -4.5002
-4.5572 -4.5812 -4.5931 -4.5876 -4.6051 -4.6318
-4.6576 -4.7165 -4.8058 -4.9024 -5.0083 -5.1224
-5.2264 -5.3010 -5.3240 -5.3074 -5.2375 -5.1252
-4.9595 -4.7864 -4.5674 -4.2922 -4.0363 -3.7344
-3.4205 -3.1103 -2.7992 -2.4779 -2.1641 -1.8925
-1.6578 -1.4627 -1.3522 -1.2915 -1.2234 -1.2455
-1.2961 -1.3927 -1.5372 -1.6606 -1.7931 -1.8981
-1.9653 -2.0076 -2.0150 -1.9966 -1.9717 -1.9284
-1.8879 -1.8346 -1.7683 -1.7085 -1.6615 -1.6588
-1.6523 -1.6707 -1.6928 -1.6854 -1.7269 -1.7803
-1.8401 -1.9128 -1.9984 -2.1374 -2.2478 -2.3776
-2.4945 -2.5479 -2.6077 -2.5396 -2.4292 -2.3252
-2.1751 -2.0454 -1.9146 -1.8143 -1.7398 -1.6431
-1.5437 -1.4489 -1.2952 -1.1350 -0.9647 -0.7586
-0.5754 -0.3508 -0.0875 0.1821 0.4979 0.9001
1.3484 1.8629 2.4271 2.9997 3.5805 4.1226
4.6454 5.1296 5.5852 5.9773 6.2866 6.5379
6.7487 6.9447 7.1159 7.2798 7.4280 7.5439
7.6415 7.7271 7.7667 7.8182 7.9130 8.0106
8.1634 8.3208 8.4764 8.6466 8.7902 8.9430
9.0544 9.1695 9.2477 9.2633 9.3213 9.3020
9.2449 9.1474 9.0084 8.8390 8.5804 8.3061
7.9802 7.6608 7.3166 6.9769 6.6695 6.3271
6.0077 5.6846 5.3993 5.1185 4.8838 4.6970
4.5257 4.3766 4.2257 4.0876 3.9192 3.7673
3.6173 3.4764 3.3264 3.1672 3.0088 2.8524
2.7032 2.5348 2.3682 2.1657 1.9853 1.7671
1.5324 1.2995 1.0317 0.7804 0.5190 0.2309
-0.0867 -0.3987 -0.7301 -1.0568 -1.4241 -1.8162
-2.1991 -2.6326 -3.0468 -3.4491 -3.8357 -4.1615
-4.4459 -4.6926 -4.9172 -5.0857 -5.1906 -5.3176
-5.3830 -5.3857 -5.3618 -5.2615 -5.1446 -5.0240
-4.9025 -4.8362 -4.8077 -4.7626 -4.7607 -4.7359
-4.6742 -4.6429 -4.6070 -4.6245 -4.6807 -4.7874
-4.9412 -5.0553 -5.1418 -5.1980 -5.1611 -5.0562
-4.9209 -4.6871 -4.4414 -4.1726 -3.8440 -3.5246
-3.1628 -2.8131 -2.5001 -2.1789 -1.8871 -1.6459
-1.4563 -1.3514 -1.2952 -1.2658 -1.2547 -1.2501
-1.2391 -1.2142 -1.1986 -1.1839 -1.2179 -1.2465
-1.2465 -1.2336 -1.1876 -1.1130 -1.0228 -0.9519
-0.8746 -0.7973 -0.7098 -0.5920 -0.4401 -0.2524
-0.0103 0.2428 0.4739 0.7104 0.9323 1.1173
1.2765 1.4219 1.5177 1.5849 1.5849 1.5305
1.4781 1.3731 1.2526 1.1136 0.9000 0.6773
0.4435 0.1462 -0.1484 -0.4714 -0.8010 -1.0826
-1.3864 -1.6690 -1.9212 -2.1991 -2.4698 -2.7118
-2.9769 -3.2301 -3.4593 -3.7188 -3.9885 -4.2315
-4.4460 -4.6347 -4.7341 -4.7829 -4.7875 -4.7571
-4.7341 -4.6862 -4.6678 -4.6586 -4.6522 -4.6724
-4.7230 -4.8031 -4.8860 -5.0443 -5.2486 -5.4705
-5.7466 -5.9924 -6.2087 -6.3835 -6.4553 -6.4857
-6.4710 -6.4213 -6.3403 -6.2298 -6.0826 -5.8994
-5.7328 -5.5266 -5.3002 -5.0360 -4.7258 -4.4046
-4.0787 -3.7492 -3.3635 -2.9346 -2.4707 -2.0013
-1.5236 -1.0808 -0.6859 -0.3168 -0.0011 0.2649
0.4766 0.6358 0.7518 0.8190 0.8374 0.8494
0.8724 0.9221 1.0040 1.1053 1.2111 1.3345
1.4173 1.4771 1.5719 1.6382 1.7054 1.7781
1.9254 2.1141 2.2972 2.4997 2.7142 2.9342
3.1118 3.3263 3.5224 3.7138 3.9200 4.0967
4.3130 4.5459 4.7788 5.0172 5.2768 5.5409
5.8511 6.2073 6.5921 7.0118 7.4352 7.8632
8.2728 8.7091 9.1602 9.5882 10.0042 10.3761
10.6817 10.9201 11.0729 11.1888 11.2496 11.2201
11.1667 11.0066 10.7562 10.4626 10.0999 9.6664
9.1104 8.4808 7.8052 7.0670 6.3205 5.5372
4.7143 3.8620 2.9563 2.0892 1.1770 0.2722
-0.5599 -1.4269 -2.2222 -3.0175 -3.7953 -4.5114
-5.1815 -5.7337 -6.2363 -6.6220 -6.9368 -7.2000
-7.3961 -7.5949 -7.7155 -7.8370 -7.9217 -7.9567
-7.9714 -7.8987 -7.8425 -7.7551 -7.6511 -7.5360
-7.3685 -7.2203 -7.0325 -6.8475 -6.7030 -6.5520
-6.4177 -6.3182 -6.2621 -6.2354 -6.2225 -6.2069
-6.2253 -6.2225 -6.1774 -6.1535 -6.0605 -5.9206
-5.7522 -5.5147 -5.2376 -4.8906 -4.4875 -4.0383
-3.5633 -3.0838 -2.5656 -2.0602 -1.5448 -1.0229
-0.5212 0.0126 0.5262 1.0417 1.5654 2.0883
2.5890 3.0777 3.5739 4.0350 4.4916 4.9279
5.3899 5.8419 6.2321 6.6132 6.9759 7.3091
7.6193 7.9267 8.1844 8.3934 8.5609 8.6272
8.6465 8.6152 8.5351 8.4578 8.3593 8.2921
8.2654 8.2544 8.2617 8.2709 8.2930 8.3197
8.3685 8.4053 8.4403 8.4863 8.5149 8.5600
8.5738 8.5259 8.4385 8.3317 8.1697 7.9893
7.8034 7.5484 7.2373 6.8406 6.4006 5.9284
5.4184 4.9278 4.4777 4.0599 3.6466 3.2305
2.8025 2.3708 1.9327 1.4853 1.0509 0.6404
0.2335 -0.1696 -0.5461 -0.9345 -1.3478 -1.7565
-2.1633 -2.5822 -2.9826 -3.3250 -3.6278 -3.8800
-4.0310 -4.1267 -4.1359 -4.0475 -3.9389 -3.7548
-3.5404 -3.3388 -3.1556 -3.0111 -2.9117 -2.8399
-2.7948 -2.8169 -2.8390 -2.9135 -3.0406 -3.2099
-3.4124 -3.6186 -3.8570 -4.0936 -4.3780 -4.6836
-4.9809 -5.2635 -5.5341 -5.7927 -5.9833 -6.1333
-6.2704 -6.3459 -6.3919 -6.4039 -6.3514 -6.2806
-6.1673 -6.0284 -5.8498 -5.6556 -5.4568 -5.2257
-5.0021 -4.7397 -4.4894 -4.2546 -3.9877 -3.7466
-3.5100 -3.2486 -2.9835 -2.6853 -2.3696 -2.0538
-1.7096 -1.3663 -1.0165 -0.6870 -0.3814 -0.1347
0.0779 0.2795 0.4185 0.5326 0.6072 0.6551
0.6652 0.6569 0.6320 0.6063 0.5879 0.5363
0.4931 0.4157 0.3623 0.3099 0.2436 0.2040
0.1424 0.0687 -0.0224 -0.1338 -0.2507 -0.3749
-0.5195 -0.6695 -0.8563 -1.0598 -1.2926 -1.5531
-1.7906 -2.0446 -2.2941 -2.5159 -2.7101 -2.9062
-3.0820 -3.2228 -3.3904 -3.5772 -3.7457 -3.9086
-4.0568 -4.1691 -4.2574 -4.3559 -4.4875 -4.5943
-4.6983 -4.7931 -4.8474 -4.8373 -4.7646 -4.6560
-4.5014 -4.3320 -4.1451 -3.9684 -3.7668 -3.5487
-3.3600 -3.1952 -3.0277 -2.8031 -2.5638 -2.3438
-2.1119 -1.8845 -1.6525 -1.4132 -1.2301 -1.0055
-0.8030 -0.6161 -0.4633 -0.3381 -0.1872 -0.0740
0.0807 0.1377 0.2988 0.4185 0.4755 0.6219
0.6891 0.8345 1.0168 1.1769 1.1953 1.2920
1.3564 1.4024 1.5764 1.6123 1.7329 1.8304
1.9409 2.1664 2.3293 2.5272 2.7739 3.0031
3.2820 3.5406 3.7708 4.0046 4.1702 4.3654
4.5688 4.7409 4.9222 5.1386 5.3705 5.5979
5.8243 6.0203 6.1916 6.3453 6.5220 6.6757
6.7880 6.8902 7.0043 7.1194 7.2151 7.3025
7.3918 7.4691 7.5280 7.6256 7.6900 7.7223
7.7471 7.7342 7.7287 7.6956 7.6219 7.5041
7.3541 7.1571 6.9242 6.6739 6.3968 6.1409
5.9016 5.6770 5.4773 5.2831 5.0750 4.8909
4.7032 4.4970 4.2880 4.0386 3.7919 3.5544
3.3225 3.1301 2.9386 2.7610 2.5990 2.4324
2.2842 2.1075 1.9289 1.7025 1.4088 1.0894
0.7176 0.3144 -0.0887 -0.4716 -0.8877 -1.2844
-1.6756 -2.0953 -2.4828 -2.8556 -3.2266 -3.5892
-3.9178 -4.2142 -4.4425 -4.6404 -4.8282 -4.9800
-5.1522 -5.3528 -5.5296 -5.6768 -5.8269 -5.9097
-5.9889 -6.0800 -6.1693 -6.3000 -6.4334 -6.6129
-6.7887 -6.9471 -7.0897 -7.1873 -7.2434 -7.2711
-7.3060 -7.3235 -7.3475 -7.4018 -7.4257 -7.4312
-7.4054 -7.3125 -7.1947 -7.0281 -6.8311 -6.6350
-6.4242 -6.2521 -6.1223 -5.9659 -5.8388 -5.7017
-5.5038 -5.2893 -4.9985 -4.7012 -4.3772 -4.0062
-3.6279 -3.2211 -2.8096 -2.3632 -1.9306 -1.4796
-1.0460 -0.6208 -0.1504 0.2785 0.7093 1.1253
1.4999 1.8120 2.0798 2.3256 2.5336 2.7260
2.9165 3.1337 3.3491 3.5590 3.7449 3.9134
4.0570 4.1812 4.3248 4.4390 4.5678 4.6884
4.7501 4.8117 4.8660 4.9185 4.9894 5.0336
5.0833 5.1357 5.1735 5.1900 5.1449 5.0888
5.0013 4.9056 4.8080 4.7510 4.6884 4.6230
4.6157 4.5650 4.5540 4.5807 4.6166 4.7142
4.8255 4.9286 5.0925 5.2434 5.4155 5.6576
5.8509 6.0755 6.2449 6.3710 6.4897 6.5578
6.6140 6.6084 6.6002 6.5422 6.4244 6.2670
6.0645 5.8472 5.6107 5.3603 5.1081 4.8835
4.6442 4.3938 4.1324 3.8241 3.5047 3.1503
2.7757 2.4517 2.1406 1.8644 1.6002 1.3094
1.0323 0.7387 0.4083 0.0410 -0.2950 -0.6254
-0.9522 -1.2467 -1.5358 -1.7843 -2.0171 -2.2068
-2.3780 -2.5096 -2.5759 -2.6256 -2.6431 -2.6532
-2.6716 -2.6826 -2.6882 -2.7093 -2.7222 -2.7462
-2.7590 -2.7213 -2.6992 -2.6836 -2.6698 -2.6946
-2.7149 -2.7314 -2.7001 -2.5805 -2.4212 -2.1801
-1.9444 -1.7070 -1.4437 -1.2246 -1.0231 -0.8592
-0.7129 -0.6162 -0.5435 -0.5012 -0.4910 -0.4892
-0.5131 -0.5187 -0.5242 -0.5352 -0.5417 -0.5748
-0.6153 -0.6761 -0.7930 -0.8924 -1.0120 -1.1593
-1.2698 -1.3830 -1.4741 -1.5431 -1.6057 -1.6830
-1.7622 -1.8635 -1.9969 -2.1267 -2.2537 -2.3752
-2.5483 -2.7517 -3.0140 -3.3380 -3.6445 -3.9455
-4.2484 -4.5309 -4.8025 -5.0620 -5.2931 -5.4827
-5.6272 -5.7423 -5.7920 -5.8150 -5.7892 -5.7321
-5.6880 -5.6014 -5.5278 -5.4652 -5.3953 -5.2940
-5.2185 -5.1200 -4.9534 -4.8255 -4.6635 -4.5328
-4.4453 -4.3404 -4.2870 -4.2382 -4.1453 -4.0643
-3.9842 -3.8553 -3.7053 -3.5479 -3.3703 -3.1742
-2.9975 -2.7885 -2.5465 -2.3090 -2.0273 -1.7724
-1.5284 -1.2864 -1.0710 -0.8758 -0.7028 -0.5684
-0.4892 -0.3926 -0.3705 -0.3972 -0.4313 -0.4929
-0.5242 -0.5647 -0.5914 -0.5923 -0.5831 -0.5822
-0.5923 -0.6255 -0.6954 -0.7976 -0.9596 -1.1271
-1.3038 -1.5220 -1.7208 -1.9132 -2.0761 -2.2068
-2.3210 -2.3661 -2.3799 -2.3633 -2.3062 -2.2519
-2.1636 -2.0467 -1.9528 -1.8193 -1.6904 -1.5248
-1.3186 -1.1400 -0.9237 -0.7378 -0.5491 -0.3816
-0.2242 -0.0622 0.0474 0.1459 0.1900 0.2112
0.2296 0.2407 0.2149 0.2112 0.2361 0.2738
0.3778 0.5113 0.7147 0.9393 1.2016 1.4722
1.7382 2.0125 2.2601 2.5252 2.7830 3.0370
3.2542 3.4733 3.6601 3.8019 3.9326 4.0035
4.0771 4.1369 4.1848 4.2502 4.3118 4.3855
4.4407 4.4701 4.5014 4.4729 4.4131 4.3376
4.2437 4.1609 4.1047 4.0835 4.0430 4.0127
3.9326 3.8175 3.6693 3.4613 3.2174 2.9265
2.6403 2.3466 2.0659 1.7907 1.5431 1.2863
1.0663 0.8850 0.6696 0.5168 0.3585 0.2278
0.1541 0.1026 0.0630 0.0483 0.0538 0.0483
0.0565 0.0639 0.0906 0.1035 0.1274 0.1624
0.2250 0.3023 0.3667 0.4864 0.6125 0.7331
0.8896 1.0552 1.2384 1.4667 1.6996 1.9582
2.2196 2.5068 2.7995 3.0361 3.2754 3.4530
3.5800 3.6923 3.7632 3.7641 3.7577 3.6960
3.5736 3.4512 3.2984 3.1769 3.0434 2.9514
2.8391 2.6918 2.5731 2.4212 2.2619 2.1230
2.0199 1.9527 1.9306 1.8809 1.8376 1.7778
1.7014 1.6213 1.5099 1.3838 1.2283 1.0994
0.9328 0.7864 0.6539 0.5296 0.4247 0.3198
0.2636 0.2047 0.1633 0.1366 0.1265 0.1467
0.2047 0.2710 0.3796 0.5149 0.6493 0.7947
0.9374 1.0764 1.1841 1.3047 1.4142 1.5200
1.6084 1.7060 1.7870 1.8726 1.9784 2.0548
2.1726 2.2362 2.3015 2.3392 2.3632 2.3981
2.4037 2.4479 2.4525 2.4727 2.4525 2.4009
2.3291 2.2380 2.1717 2.0429 1.9002 1.7271
1.4998 1.2384 0.9245 0.5738 0.1900 -0.1975
-0.5418 -0.8584 -1.1401 -1.3877 -1.5847 -1.7678
-1.9575 -2.1572 -2.4011 -2.5880 -2.7675 -2.9396
-3.1301 -3.3547 -3.5802 -3.8527 -4.1076 -4.3635
-4.5550 -4.7308 -4.8836 -4.9784 -5.0704 -5.1109
-5.1321 -5.1266 -5.0990 -5.0474 -4.9701 -4.8799
-4.7759 -4.6415 -4.5145 -4.3773 -4.2439 -4.1030
-3.9438 -3.8159 -3.6640 -3.5627 -3.4578 -3.3658
-3.2811 -3.1587 -3.0224 -2.8586 -2.6837 -2.4536
-2.2382 -1.9860 -1.7448 -1.4982 -1.2717 -1.1024
-0.9321 -0.8060 -0.6477 -0.5335 -0.4093 -0.2905
-0.2141 -0.1304 -0.0632 0.0031 0.0408 0.0896
0.1550 0.2240 0.2838 0.3648 0.4136 0.4486
0.4734 0.4624 0.4615 0.4385 0.4155 0.4035
0.3934 0.3418 0.3032 0.2378 0.1743 0.1421
0.1053 0.1154 0.1347 0.1697 0.1991 0.2544
0.3059 0.3934 0.4688 0.5655 0.6713 0.7689
0.9171 0.9852 1.0874 1.1463 1.1886 1.2144
1.1923 1.1702 1.0892 0.9944 0.8214 0.6244
0.3906 0.1476 -0.0632 -0.2721 -0.4544 -0.6035
-0.7848 -0.9643 -1.0978 -1.2800 -1.4080 -1.5240
-1.6372 -1.7081 -1.7458 -1.7347 -1.6740 -1.5866
-1.4899 -1.3224 -1.1539 -0.9441 -0.7011 -0.4360
-0.1856 0.0546 0.3225 0.5544 0.8250 1.0772
1.3304 1.6001 1.8937 2.2002 2.5095 2.8436
3.1326 3.4391 3.7107 3.9693 4.2418 4.4967
4.7471 4.9606 5.1282 5.2322 5.3076 5.3417
5.3573 5.3978 5.3932 5.3527 5.3159 5.2377
5.1751 5.1042 5.0573 5.0223 4.9376 4.8787
4.7747 4.6845 4.5924 4.4792 4.3605 4.2427
4.1377 3.9987 3.8892 3.7355 3.5910 3.4732
3.3452 3.2182 3.0912 2.9605 2.7975 2.6567
2.5297 2.4064 2.2526 2.0805 1.8808 1.6599
1.4436 1.2484 1.0791 0.9290 0.8591 0.7781
0.6842 0.5765 0.4495 0.3353 0.2598 0.2442
0.2249 0.2193 0.2157 0.2055 0.1604 0.1126
0.0472 -0.0365 -0.1267 -0.2519 -0.3605 -0.4820
-0.6210 -0.7490 -0.8760 -1.0675 -1.2258 -1.4089
-1.6096 -1.7560 -1.9548 -2.1278 -2.3358 -2.5512
-2.7455 -2.9811 -3.1965 -3.4165 -3.6595 -3.8675
-4.0783 -4.3194 -4.5726 -4.8404 -5.0991 -5.3908
-5.6596 -5.9496 -6.2561 -6.5515 -6.8442 -7.1176
-7.3974 -7.6257 -7.8503 -8.0454 -8.1955 -8.2783
-8.3151 -8.3704 -8.3593 -8.2940 -8.2516 -8.1964
-8.1320 -8.0767 -7.9700 -7.8595 -7.6800 -7.4840
-7.2640 -7.0201 -6.8102 -6.5690 -6.3610 -6.1318
-5.9422 -5.7425 -5.5225 -5.3209 -5.1248 -4.9564
-4.7751 -4.6168 -4.4170 -4.2035 -3.9826 -3.7598
-3.5628 -3.3944 -3.2388 -3.0796 -2.8900 -2.6884
-2.5006 -2.2945 -2.1002 -1.9364 -1.8416 -1.7394
-1.6685 -1.5912 -1.4835 -1.3887 -1.2718 -1.1733
-1.0353 -0.9036 -0.7011 -0.5152 -0.3247 -0.0890
0.0960 0.2929 0.3988 0.5129 0.6013 0.6786
0.7412 0.7430 0.7366 0.7117 0.7007 0.6602
0.6436 0.5921 0.5037 0.4098 0.3178 0.2211
0.1429 0.0868 0.0131 0.0214 -0.0099 -0.0237
0.0011 -0.0127 0.0389 0.1134 0.2036 0.3610
0.5267 0.6924 0.8480 0.9400 1.0707 1.1683
1.2290 1.3017 1.3358 1.3386 1.2962 1.2456
1.1674 1.0946 1.0118 0.9584 0.9087 0.8654
0.8314 0.7789 0.7532 0.6942 0.6436 0.5203
0.3656 0.2092 0.0370 -0.1452 -0.3597 -0.5797
-0.8586 -1.1080 -1.3381 -1.5857 -1.7984 -2.0082
-2.2144 -2.3442 -2.4611 -2.5375 -2.6047 -2.6820
-2.7087 -2.7216 -2.6452 -2.5402 -2.4215 -2.2954
-2.1399 -1.9788 -1.7827 -1.5149 -1.2332 -0.8825
-0.5576 -0.2032 0.1208 0.4135 0.7053 0.9832
1.2621 1.4720 1.6856 1.8733 2.0703 2.2360
2.4053 2.5637 2.6935 2.8361 2.9898 3.2061
3.4031 3.6397 3.8716 4.1008 4.3217 4.5371
4.7700 4.9541 5.1713 5.3793 5.5505 5.7402
5.9031 6.0246 6.1562 6.2409 6.3302 6.4139
6.4949 6.6293 6.7526 6.8953 7.0288 7.1761
7.2810 7.3694 7.4181 7.3813 7.3629 7.3031
7.2267 7.1429 7.0380 6.9156 6.7545 6.5538
6.3642 6.1378 5.8690 5.6067 5.3471 5.1059
4.8363 4.5822 4.3033 4.0603 3.8053 3.5430
3.3285 3.0763 2.8711 2.6695 2.4642 2.2415
2.0215 1.8098 1.6404 1.4729 1.2695 1.0799
0.8203 0.5488 0.2570 -0.0449 -0.3533 -0.6819
-1.0086 -1.2866 -1.5517 -1.8297 -2.0663 -2.2881
-2.4262 -2.5504 -2.6379 -2.6830 -2.7299 -2.7796
-2.8201 -2.8321 -2.8790 -2.8919 -2.9057 -2.9204
-2.9269 -2.9416 -2.9600 -2.9324 -2.8799 -2.8072
-2.7170 -2.6848 -2.6333 -2.5964 -2.5504 -2.5127
-2.4667 -2.4105 -2.3516 -2.2761 -2.2117 -2.1298
-2.0387 -1.9079 -1.8122 -1.6880 -1.5729 -1.4947
-1.4376 -1.4358 -1.4210 -1.4551 -1.4809 -1.5149
-1.5563 -1.5821 -1.6245 -1.6834 -1.7542 -1.8242
-1.8905 -1.9319 -1.9816 -2.0267 -2.0893 -2.1344
-2.1933 -2.2697 -2.3498 -2.4805 -2.6176 -2.7658
-2.8984 -3.0328 -3.1487 -3.2408 -3.3089 -3.3522
-3.3752 -3.3954 -3.4101 -3.4138 -3.4433 -3.4414
-3.4911 -3.5307 -3.5556 -3.5712 -3.5620 -3.5906
-3.6301 -3.7259 -3.7949 -3.8869 -3.9790 -4.0499
-4.1051 -4.1401 -4.1999 -4.2441 -4.3251 -4.3849
-4.4098 -4.4181 -4.4236 -4.3877 -4.3113 -4.2248
-4.0931 -3.9468 -3.8124 -3.6891 -3.5777 -3.5040
-3.4194 -3.3466 -3.2702 -3.1994 -3.1165 -3.0309
-2.9923 -2.9389 -2.9214 -2.9352 -2.9637 -2.9996
-3.0411 -3.0714 -3.1119 -3.1561 -3.2159 -3.2693
-3.2804 -3.3062 -3.2629 -3.2196 -3.1607 -3.0733
-2.9904 -2.8653 -2.7364 -2.6177 -2.4842 -2.3121
-2.1178 -1.8721 -1.6309 -1.3263 -1.0317 -0.7215
-0.3561 -0.0570 0.3066 0.6647 1.0393 1.4360
1.8355 2.2295 2.6133 2.9677 3.2392 3.5466
3.8504 4.1366 4.3861 4.6088 4.8049 4.9457
5.0488 5.1436 5.1832 5.2126 5.2771 5.2808
5.3516 5.3811 5.3829 5.3884 5.3535 5.3378
5.3065 5.3001 5.2587 5.2126 5.1418 5.0875
5.0019 4.8905 4.7681 4.5830 4.4017 4.1707
3.9765 3.7436 3.4987 3.3229 3.1876 3.0293
2.8195 2.6694 2.5295 2.4255 2.3638 2.3344
2.3160 2.2966 2.2911 2.2635 2.2359 2.2386
2.2110 2.1613 2.1512 2.1300 2.0987 2.0260
1.9745 1.9165 1.8622 1.8300 1.7397 1.6431
1.5023 1.3495 1.2050 1.0641 0.9297 0.7954
0.6610 0.5349 0.4078 0.2560 0.0820 -0.1076
-0.2659 -0.4307 -0.5264 -0.6396 -0.7915 -0.9535
-1.1726 -1.3696 -1.5813 -1.7672 -1.9504 -2.0976
-2.2256 -2.3729 -2.5072 -2.6508 -2.7779 -2.8616
-2.9122 -2.9831 -3.0310 -3.0982 -3.1083 -3.1092
-3.1939 -3.2703 -3.3688 -3.4627 -3.5179 -3.5538
-3.6201 -3.6771 -3.7471 -3.8217 -3.8695 -3.9220
-3.9432 -3.9036 -3.8263 -3.7508 -3.6486 -3.5943
-3.5152 -3.4194 -3.3320 -3.2040 -3.0687 -2.9353
-2.8230 -2.6932 -2.5717 -2.3710 -2.1704 -1.9476
-1.6733 -1.4303 -1.1579 -0.8983 -0.6452 -0.3552
0.0102 0.4069 0.8441 1.2279 1.5584 1.8870
2.1779 2.4632 2.7228 3.0081 3.2934 3.5668
3.7960 4.0013 4.2157 4.4422 4.6557 4.8739
5.0920 5.2236 5.3111 5.3092 5.3175 5.2890
5.2135 5.1647 5.1058 5.0727 4.9944 4.9429
4.8490 4.7487 4.6502 4.5314 4.4468 4.3216
4.1964 4.0362 3.8586 3.6589 3.4361 3.1922
2.9354 2.6997 2.4577 2.2064 1.9523 1.6918
1.4498 1.2427 1.0236 0.8018 0.5781 0.3857
0.1878 0.0046 -0.1666 -0.3286 -0.4758 -0.6857
-0.8624 -1.0115 -1.1422 -1.2886 -1.4276 -1.5454
-1.6862 -1.7783 -1.8344 -1.8952 -1.9477 -2.0102
-2.1630 -2.3177 -2.4649 -2.6435 -2.7834 -2.8874
-3.0301 -3.2105 -3.4139 -3.6487 -3.8079 -3.9690
-4.1034 -4.2322 -4.3859 -4.4688 -4.5664 -4.6658
-4.7274 -4.7504 -4.7523 -4.6971 -4.6161 -4.5093
-4.3878 -4.2764 -4.1623 -4.0380 -3.8539 -3.6560
-3.3642 -3.0274 -2.6537 -2.2753 -1.9624 -1.6835
-1.4341 -1.1487 -0.9103 -0.6158 -0.2918 -0.0248
0.2623 0.4676 0.6075 0.7474 0.8404 0.9389
1.0908 1.2721 1.4635 1.5740 1.6614 1.7084
1.7470 1.8115 1.8556 1.9035 1.8915 1.8621
1.7516 1.6522 1.5510 1.4460 1.4414 1.4147
1.4046 1.3724 1.3071 1.2058 1.0733 0.9315
0.8036 0.7078 0.5836 0.4464 0.2715 0.0561
-0.1611 -0.3709 -0.5790 -0.7677 -0.9738 -1.1552
-1.3439 -1.5454 -1.7516 -1.9873 -2.1916 -2.4190
-2.5929 -2.7614 -2.9436 -3.1203 -3.2952 -3.4103
-3.4821 -3.5253 -3.5511 -3.5364 -3.5456 -3.5042
-3.4361 -3.3624 -3.2161 -3.0918 -2.9961 -2.8479
-2.7080 -2.5939 -2.4134 -2.3021 -2.1750 -2.0701
-2.0167 -1.9192 -1.8492 -1.7415 -1.6578 -1.5970
-1.5676 -1.5436 -1.5252 -1.5445 -1.5629 -1.5749
-1.5804 -1.5758 -1.5381 -1.5123 -1.4856 -1.4691
-1.4194 -1.3522 -1.2730 -1.1607 -1.0162 -0.8422
-0.6766 -0.4713 -0.2504 -0.0267 0.2034 0.4234
0.5872 0.7897 1.0042 1.1883 1.3972 1.5905
1.8179 1.9992 2.1953 2.3895 2.5662 2.7540
2.8930 3.0651 3.2234 3.3311 3.4066 3.4710
3.5262 3.5897 3.5925 3.5759 3.5612 3.4913
3.4462 3.3440 3.2335 3.1323 3.0411 2.9813
2.8966 2.8092 2.7089 2.5984 2.4346 2.2459
2.0480 1.8225 1.5813 1.3558 1.1119 0.8698
0.6268 0.3626 0.0975 -0.1630 -0.3903 -0.6720
-0.9279 -1.1755 -1.4295 -1.6477 -1.8502 -2.0085
-2.1585 -2.2275 -2.2855 -2.3205 -2.3279 -2.3012
-2.2018 -2.1005 -1.9606 -1.8041 -1.6421 -1.4360
-1.1994 -0.9941 -0.7613 -0.5275 -0.3020 -0.0682
0.1389 0.3654 0.6010 0.8514 1.1119 1.4202
1.7019 2.0029 2.3223 2.6039 2.9362 3.2740
3.6192 3.9423 4.2755 4.6013 4.9069 5.2070
5.4813 5.7537 6.0050 6.2508 6.4910 6.7386
6.9632 7.1408 7.2660 7.3903 7.4759 7.5155
7.5532 7.5523 7.5624 7.5587 7.5403 7.5007
7.4372 7.3176 7.1721 7.0120 6.8113 6.6005
6.3594 6.1136 5.8080 5.4766 5.1167 4.7467
4.3758 4.0186 3.6882 3.3338 3.0034 2.6407
2.2578 1.8795 1.5095 1.1210 0.7363 0.3690
-0.0019 -0.3646 -0.7309 -1.0577 -1.3568 -1.6385
-1.9303 -2.1917 -2.4899 -2.7891 -3.0588 -3.3597
-3.6396 -3.9129 -4.1918 -4.5002 -4.7901 -5.0976
-5.3663 -5.5863 -5.7897 -5.9149 -6.0143 -6.0779
-6.1193 -6.1331 -6.1478 -6.1220 -6.0484 -5.9435
-5.7640 -5.5716 -5.4096 -5.2126 -4.9834 -4.7561
-4.4928 -4.2636 -4.0059 -3.7279 -3.4536 -3.1554
-2.8664 -2.5903 -2.3491 -2.0877 -1.8603 -1.6339
-1.4250 -1.2077 -0.9933 -0.7825 -0.5330 -0.3112
-0.0489 0.1748 0.3791 0.5476 0.7022 0.8743
1.0207 1.1192 1.1643 1.2296 1.2490 1.3106
1.3373 1.3548 1.4008 1.4008 1.4321 1.4754
1.5196 1.5684 1.6595 1.7469 1.8500 1.9126
1.9595 2.0083 2.0470 2.0847 2.0856 2.0737
1.9770 1.9117 1.8288 1.7626 1.7432 1.7009
1.6650 1.6042 1.5380 1.4303 1.3493 1.2416
1.1606 1.1081 1.0207 0.9489 0.8624 0.7583
0.6746 0.6359 0.5494 0.4537 0.3377 0.2143
0.0919 -0.0369 -0.1428 -0.2404 -0.3434 -0.4705
-0.6021 -0.7549 -0.8736 -1.0099 -1.1341 -1.2289
-1.3228 -1.3799 -1.4480 -1.5023 -1.5364 -1.5428
-1.5226 -1.4931 -1.4673 -1.4544 -1.4931 -1.5253
-1.5382 -1.5658 -1.5677 -1.5539 -1.5143 -1.5262
-1.5327 -1.5447 -1.5852 -1.5971 -1.6026 -1.6045
-1.6054 -1.6174 -1.6671 -1.6662 -1.6919 -1.7085
-1.6993 -1.7140 -1.7343 -1.7775 -1.7785 -1.7941
-1.7711 -1.7683 -1.7913 -1.7969 -1.7932 -1.7527
-1.7251 -1.6956 -1.6726 -1.5944 -1.5106 -1.4158
-1.3035 -1.1820 -1.0458 -0.9197 -0.7963 -0.6969
-0.5699 -0.4797 -0.3564 -0.2385 -0.1778 -0.0701
-0.0020 0.0026 0.0302 0.0477 0.0542 0.1066
0.1103 0.1149 0.1499 0.1876 0.2254 0.2557
0.2935 0.3294 0.3487 0.3662 0.4159 0.4076
0.4048 0.4030 0.3864 0.4113 0.4619 0.5006
0.5171 0.5613 0.5981 0.6552 0.7270 0.8025
0.8605 0.9065 0.9203 0.9166 0.9277 0.9231
0.9829 1.0409 1.0777 1.1053 1.1283 1.1394
1.1292 1.1651 1.2259 1.3207 1.4367 1.5876
1.7413 1.8748 1.9908 2.0948 2.2402 2.3764
2.5357 2.7023 2.8560 3.0355 3.1763 3.2665
3.3623 3.4469 3.5197 3.5878 3.6660 3.7516
3.7903 3.8206 3.8335 3.8575 3.9026 3.9182
3.9440 3.9550 3.9154 3.8630 3.7801 3.6632
3.5693 3.4239 3.3263 3.2288 3.0732 2.9407
2.7584 2.6075 2.4593 2.2991 2.1344 1.9365
1.7229 1.4818 1.2378 1.0252 0.8080 0.5880
0.3846 0.1342 -0.1051 -0.3674 -0.6224 -0.8534
-1.0946 -1.3523 -1.6312 -1.8687 -2.1034 -2.3253
-2.5655 -2.7818 -2.9834 -3.1730 -3.3672 -3.5485
-3.6811 -3.8109 -3.9011 -4.0327 -4.1220 -4.2048
-4.2637 -4.2702 -4.2886 -4.2444 -4.2499 -4.2453
-4.2278 -4.2297 -4.2159 -4.1634 -4.0861 -3.9858
-3.9048 -3.8505 -3.7418 -3.6627 -3.5679 -3.4666
-3.3461 -3.2025 -3.0552 -2.8849 -2.7321 -2.5664
-2.4210 -2.2535 -2.0924 -1.9194 -1.7343 -1.5456
-1.3349 -1.1259 -0.9216 -0.7596 -0.5681 -0.3748
-0.1871 -0.0113 0.1784 0.3597 0.4950 0.6174
0.7150 0.8153 0.8862 0.9377 0.9681 1.0040
1.0298 1.0602 1.1016 1.1642 1.2387 1.2930
1.3381 1.3280 1.3630 1.3703 1.3584 1.3510
1.3216 1.2985 1.2645 1.2580 1.2286 1.2231
1.2074 1.2111 1.2019 1.2093 1.2488 1.2369
1.2709 1.2783 1.2847 1.2967 1.3225 1.3538
1.4044 1.4697 1.5204 1.5747 1.5820 1.6004
1.5857 1.5912 1.5866 1.5471 1.5139 1.4734
1.4320 1.3620 1.2718 1.1494 1.0316 0.8724
0.7085 0.5640 0.4075 0.2630 0.1424 0.0136
-0.1107 -0.2276 -0.3518 -0.4089 -0.4743 -0.5065
-0.5277 -0.5737 -0.5976 -0.6298 -0.6492 -0.6206
-0.5672 -0.5387 -0.4743 -0.4522 -0.4264 -0.3924
-0.3638 -0.3049 -0.2616 -0.1899 -0.1457 -0.0987
-0.1024 -0.0868 -0.0315 0.0145 0.1277 0.2124
0.2980 0.3891 0.4333 0.4535 0.4830 0.4913
0.5290 0.5456 0.5382 0.5649 0.5493 0.5437
0.5419 0.5401 0.5290 0.5244 0.5290 0.5410
0.5290 0.5060 0.4738 0.4020 0.3707 0.3099
0.2529 0.1848 0.1028 0.0485 -0.0067 -0.0582
-0.1052 -0.1402 -0.2037 -0.2635 -0.3344 -0.3924
-0.4577 -0.5295 -0.5811 -0.6529 -0.7090 -0.7771
-0.8379 -0.8756 -0.9115 -0.9502 -0.9870 -1.0238
-1.0459 -1.0523 -0.9953 -0.9032 -0.8443 -0.7679
-0.7063 -0.6354 -0.5406 -0.4301 -0.3307 -0.2387
-0.1494 -0.0518 0.0964 0.2621 0.4360 0.6192
0.8107 0.9515 1.0923 1.2110 1.3105 1.4605
1.5801 1.7265 1.8876 2.0588 2.2300 2.3874
2.5660 2.7620 2.9792 3.1753 3.4008 3.6447
3.8537 4.0700 4.2927 4.4777 4.6526 4.8174
4.9416 5.0346 5.0944 5.1340 5.1405 5.1552
5.1469 5.1276 5.1018 5.0272 4.9490 4.8625
4.8008 4.7069 4.6140 4.5284 4.4124 4.2946
4.1648 4.0396 3.8997 3.8012 3.6917 3.5766
3.4974 3.4118 3.3078 3.1771 3.0510 2.9047
2.7068 2.5006 2.3119 2.0993 1.8848 1.6620
1.4264 1.2064 0.9800 0.7729 0.5722 0.3624
0.1571 -0.0739 -0.3455 -0.6234 -0.8913 -1.1527
-1.4270 -1.6663 -1.9121 -2.1717 -2.4202 -2.6705
-2.8924 -3.1345 -3.3259 -3.4999 -3.6748 -3.8303
-3.9739 -4.0954 -4.2206 -4.2859 -4.3356 -4.3614
-4.3605 -4.3522 -4.3412 -4.3218 -4.3080 -4.3145
-4.2896 -4.2786 -4.2454 -4.2114 -4.1884 -4.1681
-4.1737 -4.1691 -4.1783 -4.2031 -4.2519 -4.2933
-4.3430 -4.4084 -4.4765 -4.5446 -4.5869 -4.6357
-4.6670 -4.6983 -4.7370 -4.7858 -4.8520 -4.9100
-4.9625 -5.0085 -5.0812 -5.1521 -5.2322 -5.3242
-5.3960 -5.4586 -5.5092 -5.5461 -5.5820 -5.5902
-5.5921 -5.6528 -5.6897 -5.7035 -5.7108 -5.6712
-5.6243 -5.5507 -5.4687 -5.3877 -5.3215 -5.2745
-5.2037 -5.1420 -5.0711 -4.9929 -4.8935 -4.8005
-4.7057 -4.5732 -4.4673 -4.3200 -4.1534 -3.9647
-3.7493 -3.5570 -3.3582 -3.1575 -2.9449 -2.7184
-2.4451 -2.1422 -1.8017 -1.4160 -1.0303 -0.6548
-0.2811 0.0908 0.4709 0.8769 1.2800 1.7191
2.1250 2.5033 2.8825 3.2572 3.6217 3.9549
4.3055 4.6148 4.9287 5.2131 5.4488 5.6908
5.9090 6.1133 6.3075 6.4815 6.6122 6.7530
6.8451 6.9565 7.0540 7.0743 7.0991 7.0697
7.0513 7.0236 6.9905 6.9436 6.8616 6.7668
6.6904 6.6306 6.5349 6.4833 6.4410 6.3996
6.3526 6.2689 6.1897 6.1078 6.0268 5.9430
5.8528 5.7994 5.7571 5.6917 5.6301 5.5408
5.4184 5.2785 5.1689 5.0539 4.9443 4.8357
4.7022 4.6102 4.4804 4.3221 4.1583 3.9999
3.8453 3.7183 3.6051 3.4523 3.3519 3.2240
3.0988 3.0169 2.9497 2.9000 2.8310 2.7923
2.7509 2.7288 2.7113 2.6809 2.6377 2.5889
2.5548 2.4738 2.4149 2.3597 2.2842 2.2520
2.2409 2.2152 2.1866 2.1581 2.1001 2.0163
1.9188 1.8313 1.7356 1.6316 1.5267 1.4107
1.3021 1.1594 1.0066 0.8685 0.7213 0.6200
0.5086 0.3973 0.2886 0.1147 -0.0372 -0.2102
-0.3805 -0.5149 -0.6649 -0.8021 -0.9761 -1.1546
-1.3378 -1.5062 -1.6489 -1.7769 -1.8809 -2.0383
-2.2150 -2.3982 -2.6007 -2.7792 -2.9550 -3.1410
-3.2975 -3.4309 -3.5331 -3.6233 -3.7365 -3.8617
-4.0053 -4.1305 -4.2345 -4.3164 -4.3707 -4.4351
-4.4867 -4.5088 -4.5327 -4.5659 -4.5962 -4.6238
-4.6551 -4.6966 -4.7140 -4.7205 -4.7306 -4.7067
-4.7012 -4.7122 -4.7187 -4.7334 -4.7030 -4.6754
-4.6515 -4.6156 -4.5778 -4.4977 -4.3956 -4.2520
-4.1093 -3.9400 -3.7485 -3.5911 -3.4337 -3.2929
-3.1253 -2.9854 -2.8566 -2.7526 -2.7001 -2.6237
-2.5887 -2.5758 -2.5519 -2.5482 -2.5712 -2.5777
-2.5712 -2.5648 -2.5501 -2.5381 -2.4967 -2.4479
-2.3890 -2.3144 -2.2288 -2.0935 -1.9269 -1.7612
-1.5781 -1.3756 -1.1556 -0.8942 -0.6328 -0.4036
-0.1265 0.1625 0.4156 0.6789 0.9412 1.2183
1.4889 1.7669 2.0310 2.2878 2.5474 2.7619
3.0085 3.2479 3.4642 3.6731 3.8784 4.0763
4.2337 4.3681 4.4656 4.5347 4.5466 4.5411
4.5209 4.4481 4.3671 4.2659 4.1545 4.0505
3.9842 3.9198 3.8462 3.7918 3.6768 3.5857
3.5148 3.4347 3.4163 3.3629 3.3114 3.2534
3.1484 3.0454 2.9404 2.8493 2.7287 2.6017
2.4599 2.2933 2.1378 1.9344 1.7346 1.5432
1.2900 1.0332 0.7801 0.5159 0.2518 -0.0354
-0.3254 -0.6125 -0.9025 -1.1814 -1.4456 -1.6582
-1.8349 -2.0300 -2.2224 -2.4304 -2.6642 -2.8861
-3.1208 -3.3334 -3.5249 -3.7062 -3.8452 -4.0173
-4.1922 -4.3082 -4.4288 -4.5585 -4.6589 -4.7334
-4.7933 -4.8494 -4.9074 -4.9415 -4.9525 -4.9912
-5.0013 -4.9737 -4.9396 -4.8761 -4.8246 -4.7795
-4.7251 -4.6561 -4.5678 -4.4794 -4.3708 -4.2272
-4.0873 -3.9695 -3.8203 -3.6629 -3.5184 -3.3353
-3.1631 -2.9846 -2.7766 -2.5694 -2.3311 -2.0927
-1.8368 -1.5606 -1.2827 -0.9936 -0.7065 -0.4119
-0.1698 0.0805 0.3300 0.5417 0.7957 0.9835
1.1814 1.3922 1.5615 1.7631 1.9159 2.0595
2.1847 2.2795 2.3982 2.5170 2.6320 2.7296
2.8290 2.9441 3.0324 3.0877 3.1245 3.1328
3.1456 3.1364 3.0748 3.0297 2.9689 2.8971
2.8520 2.7747 2.7029 2.6293 2.5151 2.4341
2.3605 2.3099 2.2859 2.2381 2.1773 2.0917
2.0006 1.9012 1.8036 1.7024 1.5864 1.4953
1.4336 1.4023 1.3820 1.3728 1.3627 1.3507
1.3268 1.2882 1.2753 1.2679 1.2431 1.2228
1.2504 1.3075 1.3692 1.4391 1.5164 1.5698
1.6020 1.6140 1.6085 1.6526 1.6858 1.7162
1.7502 1.7493 1.7530 1.7465 1.7419 1.7797
1.8082 1.8119 1.8533 1.8754 1.8828 1.9021
1.9288 1.9656 2.0107 2.0567 2.0807 2.1037
2.0981 2.0991 2.0935 2.0871 2.0668 1.9831
1.8947 1.7962 1.6582 1.4888 1.3296 1.1915
1.0617 0.9420 0.7994 0.6401 0.4975 0.3161
0.1551 0.0299 -0.0843 -0.1920 -0.3245 -0.4221
-0.5509 -0.6669 -0.7433 -0.8262 -0.8878 -0.9661
-1.0406 -1.1676 -1.2965 -1.3867 -1.4585 -1.4926
-1.5165 -1.5082 -1.5156 -1.5137 -1.4705 -1.4024
-1.2965 -1.1778 -1.0609 -0.9753 -0.9320 -0.9016
-0.8427 -0.7544 -0.6301 -0.4819 -0.3319 -0.2030
-0.1147 -0.0521 0.0216 0.1109 0.2121 0.3318
0.4597 0.5941 0.6640 0.7248 0.7736 0.7966
0.8408 0.8721 0.9181 0.9172 0.9383 0.9420
0.9162 0.9135 0.8675 0.8150 0.7745 0.7487
0.6604 0.5665 0.4846 0.4146 0.3400 0.2655
0.2204 0.1707 0.1320 0.0547 0.0041 -0.0521
-0.0686 -0.0788 -0.1368 -0.1708 -0.2969 -0.4580
-0.6228 -0.8124 -0.9900 -1.1566 -1.3232 -1.4604
-1.6297 -1.8396 -2.0449 -2.2511 -2.4149 -2.5797
-2.6689 -2.7463 -2.8116 -2.8420 -2.9175 -2.9478
-2.9690 -2.9037 -2.8199 -2.7085 -2.5686 -2.4747
-2.3284 -2.2492 -2.1378 -1.9795 -1.8138 -1.5570
-1.3067 -1.0821 -0.8833 -0.7240 -0.5961 -0.4442
-0.2537 -0.0392 0.1854 0.3851 0.5674 0.7027
0.7736 0.8269 0.8849 0.9576 1.0129 1.0902
1.1427 1.1712 1.1997 1.1427 1.1344 1.1040
1.0653 1.0865 1.0856 1.1068 1.1325 1.1463
1.1675 1.1749 1.1380 1.0939 1.0156 0.9678
0.9061 0.8628 0.8407 0.7975 0.8058 0.7413
0.7211 0.6695 0.6023 0.5766 0.5011 0.4569
0.3722 0.2885 0.1937 0.1062 0.0326 -0.0346
-0.0595 -0.0742 -0.0834 -0.0991 -0.1055 -0.1313
-0.1709 -0.2077 -0.2031 -0.2068 -0.1994 -0.1810
-0.2288 -0.2583 -0.3043 -0.3503 -0.4166 -0.4921
-0.5326 -0.5777 -0.5897 -0.5998 -0.6403 -0.6771
-0.7277 -0.8041 -0.8971 -1.0324 -1.1640 -1.2865
-1.4024 -1.5552 -1.7181 -1.9004 -2.0928 -2.2640
-2.4582 -2.6110 -2.7850 -2.9506 -3.1504 -3.3566
-3.5259 -3.7349 -3.9162 -4.0865 -4.2117 -4.3221
-4.4482 -4.5596 -4.6516 -4.7363 -4.8063 -4.8560
-4.9250 -4.9637 -4.9609 -4.9536 -4.9701 -4.9738
-4.9563 -4.9444 -4.9131 -4.8606 -4.7686 -4.6645
-4.5467 -4.3948 -4.2467 -4.0994 -3.9632 -3.8656
-3.7542 -3.6502 -3.5232 -3.3612 -3.2038 -3.0436
-2.9332 -2.8200 -2.7362 -2.6414 -2.5760 -2.5355
-2.4150 -2.3606 -2.3119 -2.2345 -2.1674 -2.1112
-2.0477 -1.9667 -1.8553 -1.7182 -1.5819 -1.4384
-1.3215 -1.2128 -1.1438 -1.0444 -0.9413 -0.8391
-0.7232 -0.6210 -0.5262 -0.4728 -0.3982 -0.3614
-0.2970 -0.2215 -0.1341 -0.0282 0.0325 0.0767
0.0813 0.0785 0.0528 0.0601 0.0454 0.0647
0.0887 0.0850 0.1006 0.0850 0.0896 0.0877
0.1605 0.2185 0.3013 0.4163 0.5204 0.6741
0.7799 0.9180 1.0938 1.2733 1.4436 1.6562
1.9139 2.1523 2.4027 2.6457 2.9126 3.1483
3.3406 3.5579 3.7346 3.8984 4.0439 4.1515
4.2776 4.3366 4.3623 4.3669 4.3596 4.3393
4.2730 4.2721 4.2399 4.2022 4.1497 4.0871
4.0540 3.9803 3.9362 3.8957 3.8579 3.8045
3.7567 3.7079 3.6434 3.5855 3.5321 3.5118
3.4695 3.4336 3.3968 3.3388 3.3204 3.3130
3.2532 3.2486 3.2412 3.2200 3.2348 3.1989
3.1510 3.0691 3.0240 2.9282 2.8334 2.7902
2.6954 2.6392 2.5453 2.4524 2.3364 2.1992
2.0455 1.8651 1.7188 1.5531 1.4003 1.2567
1.1177 0.9934 0.8554 0.7044 0.5397 0.3951
0.2755 0.1531 0.0665 -0.0080 -0.0283 -0.0393
-0.0789 -0.0807 -0.1433 -0.2087 -0.2888 -0.3707
-0.4305 -0.5005 -0.5529 -0.6459 -0.7324 -0.8502
-1.0178 -1.1586 -1.2856 -1.4218 -1.5461 -1.6768
-1.7983 -1.8968 -1.9962 -2.0827 -2.1803 -2.2457
-2.2641 -2.2604 -2.2714 -2.2898 -2.3552 -2.4417
-2.5089 -2.5908 -2.6405 -2.6967 -2.7096 -2.7252
-2.7685 -2.8200 -2.8734 -2.9102 -2.9240 -2.8532
-2.7814 -2.6635 -2.5651 -2.4979 -2.4344 -2.4159
-2.3644 -2.3000 -2.1619 -2.0183 -1.8894 -1.7864
-1.7505 -1.7440 -1.7698 -1.7946 -1.7956 -1.7606
-1.7164 -1.6538 -1.6179 -1.6133 -1.6400 -1.6952
-1.7385 -1.7413 -1.6943 -1.5921 -1.4504 -1.2985
-1.1494 -1.0831 -0.9846 -0.8770 -0.7647 -0.6165
-0.4756 -0.2787 -0.1010 0.0417 0.1466 0.2543
0.3574 0.5120 0.6630 0.8029 0.9934 1.1480
1.3487 1.5033 1.6626 1.8255 1.9636 2.1311
2.2894 2.4551 2.5582 2.6226 2.6530 2.6539
2.6824 2.7441 2.7883 2.8454 2.8582 2.8334
2.8288 2.7644 2.7110 2.6677 2.6659 2.6585
2.6290 2.5913 2.4891 2.3759 2.2599 2.1734
2.1044 2.0565 1.9921 1.9286 1.8549 1.7252
1.5613 1.3772 1.1729 0.9428 0.7246 0.4908
0.2405 -0.0329 -0.2787 -0.5456 -0.8273 -1.0859
-1.3427 -1.5397 -1.7404 -1.9355 -2.1518 -2.3405
-2.5283 -2.7289 -2.9001 -3.0815 -3.2177 -3.3429
-3.4405 -3.4902 -3.5316 -3.5620 -3.5868 -3.6061
-3.6264 -3.6282 -3.5675 -3.5178 -3.4138 -3.2840
-3.2269 -3.1275 -3.0244 -2.8606 -2.6305 -2.3957
-2.1573 -1.9447 -1.7901 -1.6483 -1.5112 -1.4127
-1.2719 -1.1725 -1.0878 -1.0381 -1.0022 -0.9902
-1.0399 -1.0408 -1.0813 -1.0979 -1.1218 -1.1642
-1.1927 -1.2544 -1.3299 -1.4155 -1.4965 -1.5802
-1.6428 -1.7266 -1.7790 -1.8582 -1.9364 -2.0165
-2.1445 -2.2282 -2.3212 -2.3700 -2.4261 -2.4547
-2.4639 -2.4491 -2.4004 -2.3663 -2.2770 -2.2135
-2.1353 -2.0533 -1.9751 -1.8775 -1.7634 -1.6603
-1.5674 -1.4431 -1.3575 -1.2912 -1.2121 -1.1080
-0.9829 -0.8577 -0.7371 -0.6000 -0.5199 -0.4214
-0.3128 -0.2115 -0.0274 0.1300 0.2966 0.4227
0.5230 0.6224 0.7448 0.9188 1.0826 1.2962
1.4655 1.6101 1.7555 1.8650 1.9663 2.0638
2.1375 2.2544 2.3713 2.4311 2.5176 2.5563
2.6281 2.7072 2.7413 2.8407 2.9585 3.0533
3.1583 3.2448 3.3267 3.4123 3.4611 3.5237
3.5752 3.6314 3.6737 3.7133 3.7657 3.7519
3.7473 3.7381 3.7013 3.7142 3.7252 3.7133
3.6930 3.6350 3.6166 3.5798 3.5007 3.4482
3.3727 3.2853 3.2089 3.1334 3.0478 2.9870
2.9208 2.8085 2.6962 2.5590 2.4210 2.3087
2.2138 2.1319 2.0270 1.9055 1.7877 1.6561
1.5060 1.3422 1.1700 0.9556 0.7034 0.4696
0.2247 0.0029 -0.2244 -0.4785 -0.7279 -0.9783
-1.2379 -1.5131 -1.7275 -1.9659 -2.1961 -2.4096
-2.6765 -2.9564 -3.2555 -3.5206 -3.7461 -3.9320
-4.0793 -4.2091 -4.3499 -4.4806 -4.6095 -4.7107
-4.7540 -4.7715 -4.7954 -4.8451 -4.8645 -4.9105
-4.9086 -4.8737 -4.8286 -4.7457 -4.6914 -4.6058
-4.5239 -4.4309 -4.3463 -4.2653 -4.1704 -4.0489
-3.8916 -3.6964 -3.4921 -3.3319 -3.1570 -3.0070
-2.8395 -2.6848 -2.5366 -2.3820 -2.2163 -2.0506
-1.9356 -1.7874 -1.6374 -1.4652 -1.3069 -1.1532
-1.0142 -0.9001 -0.7896 -0.6801 -0.5337 -0.4086
-0.2871 -0.1702 -0.0468 0.0535 0.1842 0.3508
0.5303 0.6932 0.8248 0.9767 1.0605 1.1792
1.3118 1.4167 1.5143 1.5879 1.6441 1.7048
1.7858 1.8199 1.8475 1.8622 1.8999 1.9414
1.9800 2.0233 2.0518 2.0914 2.1162 2.1494
2.1936 2.2571 2.3270 2.4181 2.4642 2.5093
2.5709 2.6179 2.6722 2.6685 2.6878 2.6934
2.7164 2.7707 2.8416 2.9410 2.9989 3.0505
3.0588 3.0643 3.0560 3.0266 3.0275 3.0091
2.9621 2.9189 2.8461 2.7624 2.6943 2.6041
2.5350 2.4283 2.2939 2.1751 2.0610 1.9174
1.7618 1.6173 1.4517 1.3154 1.1792 1.0687
0.9951 0.9178 0.8018 0.6720 0.5542 0.4797
0.4843 0.5321 0.5984 0.6186 0.5754 0.4594
0.3554 0.2569 0.1989 0.1998 0.1934 0.1879
0.1059 -0.0128 -0.1269 -0.1932 -0.2282 -0.2024
-0.1536 -0.1205 -0.1168 -0.1601 -0.1665 -0.1868
-0.1647 -0.1463 -0.1113 -0.0515 -0.0091 0.0231
-0.0303 -0.0671 -0.1085 -0.1168 -0.0791 -0.0459
0.0332 0.0986 0.1243 0.1363 0.1197 0.1151
0.1602 0.1897 0.2642 0.3545 0.4391 0.5293
0.5938 0.6287 0.6720 0.7604 0.8395 0.9785
1.0982 1.1838 1.2344 1.2362 1.2335 1.2224
1.2316 1.2813 1.3761 1.4268 1.4728 1.4516
1.4525 1.4608 1.4433 1.5032 1.5363 1.5759
1.5851 1.6072 1.6026 1.5842 1.5566 1.5354
1.5409 1.5068 1.4884 1.4617 1.4498 1.3909
1.3522 1.3043 1.2638 1.2528 1.2298 1.2187
1.1654 1.1608 1.1414 1.1175 1.0724 1.0310
0.9767 0.9168 0.8874 0.8367 0.8266 0.7769
0.7245 0.6711 0.6103 0.5275 0.4732 0.4428
0.3848 0.3563 0.2937 0.2265 0.1501 0.0654
-0.0515 -0.1399 -0.2061 -0.2540 -0.2512 -0.2595
-0.2862 -0.3203 -0.3341 -0.3921 -0.3958 -0.3958
-0.4298 -0.4491 -0.4970 -0.5403 -0.5725 -0.5909
-0.6130 -0.5927 -0.5918 -0.5946 -0.5835 -0.5743
-0.5817 -0.5798 -0.5900 -0.6213 -0.5863 -0.6093
-0.6351 -0.6516 -0.6701 -0.6664 -0.6664 -0.6673
-0.6609 -0.6627 -0.7060 -0.7096 -0.6977 -0.6655
-0.6415 -0.6176 -0.6259 -0.6590 -0.7188 -0.7842
-0.8035 -0.8762 -0.9048 -0.9278 -0.9324 -0.9296
-0.9499 -0.9931 -1.1018 -1.1929 -1.2978 -1.3411
-1.3576 -1.3530 -1.3337 -1.3669 -1.4460 -1.5482
-1.6329 -1.6955 -1.6918 -1.6568 -1.5694 -1.5224
-1.4801 -1.4709 -1.5003 -1.5095 -1.5408 -1.4948
-1.4414 -1.3567 -1.2822 -1.2380 -1.2371 -1.2675
-1.3061 -1.3779 -1.4009 -1.4193 -1.4120 -1.4175
-1.4092 -1.4202 -1.4755 -1.5740 -1.6706 -1.7396
-1.7949 -1.7636 -1.7277 -1.6669 -1.6172 -1.6099
-1.6347 -1.6485 -1.6412 -1.5684 -1.4230 -1.2794
-1.1128 -0.9968 -0.8772 -0.7861 -0.6959 -0.5771
-0.4216 -0.2596 -0.1105 0.0801 0.2154 0.3498
0.4575 0.5587 0.6434 0.7226 0.8146 0.9103
1.0493 1.1644 1.2757 1.3512 1.3963 1.4267
1.4930 1.5583 1.6504 1.7286 1.7148 1.7194
1.6964 1.6706 1.6228 1.6237 1.6384 1.6421
1.6283 1.5537 1.5197 1.4552 1.4037 1.3328
1.2454 1.1515 1.0042 0.8496 0.7005 0.5578
0.4013 0.2550 0.1592 0.0322 -0.1307 -0.2504
-0.4207 -0.5615 -0.7032 -0.8542 -0.9794 -1.1230
-1.2454 -1.3853 -1.4967 -1.6044 -1.6771 -1.7047
-1.7139 -1.7268 -1.7397 -1.7581 -1.7682 -1.7434
-1.7378 -1.6863 -1.6228 -1.5676 -1.5528 -1.5491
-1.4930 -1.4166 -1.3062 -1.1957 -1.0788 -0.9637
-0.8827 -0.7962 -0.6600 -0.5265 -0.3682 -0.2228
-0.1105 0.0156 0.1021 0.1896 0.2743 0.3801
0.4519 0.5163 0.5854 0.6544 0.7538 0.8256
0.9167 0.9729 0.9885 0.9701 0.9490 0.9425
0.9821 1.0309 1.0410 1.0447 0.9554 0.8569
0.7759 0.7400 0.7391 0.7520 0.7501 0.7501
0.7299 0.6747 0.6774 0.6719 0.7253 0.7520
0.7869 0.8054 0.7566 0.7409 0.7317 0.7612
0.7768 0.8090 0.7943 0.7906 0.7869 0.7823
0.8486 0.8781 0.9103 0.9232 0.9195 0.8799
0.8569 0.8689 0.8891 0.9149 0.9167 0.8762
0.8339 0.8127 0.7980 0.8412 0.8486 0.8486
0.8099 0.7713 0.7648 0.7492 0.7602 0.7510
0.7538 0.7142 0.6765 0.6065 0.5495 0.5310
0.5099 0.4951 0.4353 0.3635 0.2347 0.1012
-0.0056 -0.0719 -0.1142 -0.1473 -0.2072 -0.2974
-0.3857 -0.4769 -0.5063 -0.5395 -0.5459 -0.5468
-0.5873 -0.6545 -0.6950 -0.7143 -0.7226 -0.6729
-0.6444 -0.5993 -0.5689 -0.5413 -0.5183 -0.5238
-0.4842 -0.4069 -0.3452 -0.2606 -0.1483 -0.0617
0.0506 0.1352 0.2328 0.3322 0.4298 0.5329
0.6369 0.7584 0.8550 0.9857 1.0354 1.0566
1.0686 1.0529 1.0538 1.0640 1.0962 1.1091
1.1422 1.1385 1.1220 1.1063 1.0676 1.0520
1.0612 1.0502 1.0492 1.0520 0.9958 0.9406
0.9029 0.8596 0.7998 0.7621 0.7298 0.6921
0.6415 0.6056 0.5697 0.5338 0.5329 0.5181
0.5154 0.4666 0.4528 0.4399 0.4187 0.4252
0.3801 0.3478 0.3055 0.2687 0.2291 0.1812
0.1122 0.0459 -0.0111 -0.0562 -0.1023 -0.1713
-0.2035 -0.2624 -0.3177 -0.4042 -0.4815 -0.5505
-0.6444 -0.7042 -0.7521 -0.8037 -0.8727 -0.9417
-1.0255 -1.0706 -1.1212 -1.1488 -1.1682 -1.1958
-1.2087 -1.2630 -1.2832 -1.3237 -1.3541 -1.3845
-1.3918 -1.3891 -1.3872 -1.3661 -1.3743 -1.3357
-1.3292 -1.2887 -1.2446 -1.2105 -1.1406 -1.0881
-1.0457 -1.0052 -0.9417 -0.8911 -0.8221 -0.7650
-0.7006 -0.6628 -0.6141 -0.5772 -0.5542 -0.4714
-0.4134 -0.3480 -0.3103 -0.2588 -0.2348 -0.2146
-0.2008 -0.1851 -0.1216 -0.0922 -0.0259 0.0183
0.0459 0.0441 0.0367 0.0468 0.0477 0.0597
0.0643 0.0717 0.0643 0.0542 0.0413 0.0533
0.0431 0.0551 0.0726 0.0671 0.0496 0.0312
0.0302 0.0164 0.0422 0.0671 0.1177 0.1343
0.1343 0.1195 0.1204 0.1702 0.2088 0.2824
0.3285 0.4214 0.4868 0.5328 0.6230 0.6939
0.7841 0.8550 0.8945 0.9028 0.9084 0.9038
0.9378 0.9792 1.0363 1.0961 1.1109 1.1127
1.0952 1.1035 1.0915 1.0952 1.1081 1.1274
1.1394 1.1513 1.1606 1.1412 1.1495 1.1302
1.1458 1.1587 1.1624 1.1624 1.1523 1.1670
1.1900 1.2250 1.2425 1.2940 1.3299 1.3594
1.3980 1.4109 1.4183 1.4431 1.4588 1.4588
1.4569 1.4146 1.3787 1.3327 1.2848 1.2507
1.2241 1.1872 1.1605 1.1449 1.0869 1.0473
1.0160 1.0225 1.0446 1.0869 1.1587 1.2112
1.2517 1.2949 1.3658 1.4192 1.4578 1.4873
1.5342 1.5729 1.6162 1.6649 1.6935 1.7156
1.7073 1.6953 1.6548 1.5959 1.5388 1.4855
1.4054 1.3271 1.2250 1.1136 1.0105 0.8595
0.7003 0.5171 0.3155 0.1167 -0.0305 -0.1999
-0.3527 -0.5083 -0.6822 -0.8240 -1.0154 -1.1894
-1.3505 -1.4895 -1.6358 -1.7435 -1.8494 -1.9580
-2.0178 -2.1126 -2.1706 -2.2516 -2.3197 -2.3961
-2.4826 -2.5462 -2.6161 -2.6621 -2.7275 -2.7588
-2.7827 -2.8094 -2.8269 -2.8398 -2.8527 -2.8637
-2.9024 -2.9337 -2.9328 -2.9410 -2.9005 -2.8554
-2.8205 -2.7910 -2.7385 -2.7100 -2.6640 -2.5959
-2.5673 -2.4808 -2.4155 -2.3381 -2.2498 -2.1789
-2.1025 -2.0252 -1.9506 -1.8788 -1.7850 -1.7058
-1.6285 -1.5686 -1.5116 -1.4674 -1.4149 -1.3864
-1.3579 -1.2980 -1.2511 -1.1949 -1.1701 -1.1231
-1.0937 -1.0661 -1.0366 -1.0109 -0.9556 -0.9032
-0.8203 -0.7660 -0.7384 -0.7283 -0.7467 -0.7320
-0.6970 -0.6767 -0.6703 -0.6823 -0.6519 -0.6326
-0.6086 -0.5451 -0.5470 -0.5055 -0.4733 -0.4393
-0.3877 -0.3656 -0.3122 -0.2607 -0.1953 -0.1548
-0.1033 -0.0490 -0.0030 0.0486 0.0955 0.1369
0.1866 0.2428 0.2870 0.3551 0.4122 0.4609
0.4803 0.5116 0.5502 0.6082 0.6671 0.7260
0.8033 0.8402 0.9359 1.0003 1.0408 1.0924
1.1504 1.2295 1.2939 1.3446 1.3786 1.4283
1.4541 1.5333 1.6060 1.6575 1.7275 1.7901
1.8278 1.8536 1.9116 1.9493 2.0128 2.0763
2.1279 2.1628 2.1951 2.2116 2.2328 2.2613
2.2475 2.2595 2.2457 2.2273 2.2135 2.2089
2.1840 2.1417 2.1131 2.0782 2.0644 2.0404
2.0110 1.9787 1.9521 1.9116 1.8876 1.8572
1.8324 1.8352 1.7993 1.8048 1.8075 1.8039
1.8020 1.7753 1.7680 1.7864 1.8121 1.7993
1.7845 1.7652 1.7247 1.6824 1.6354 1.5553
1.4762 1.4053 1.3252 1.2599 1.1715 1.0896
1.0021 0.9138 0.8521 0.7849 0.7048 0.6496
0.5888 0.5336 0.4775 0.3633 0.2768 0.1710
0.0651 -0.0389 -0.1521 -0.2681 -0.3933 -0.5047
-0.6482 -0.7458 -0.8388 -0.9575 -1.0615 -1.1462
-1.2429 -1.3368 -1.3883 -1.4279 -1.4592 -1.4813
-1.4895 -1.5181 -1.4960 -1.5218 -1.5540 -1.5254
-1.5245 -1.4988 -1.4960 -1.4702 -1.4794 -1.5015
-1.4757 -1.4472 -1.3920 -1.3312 -1.2438 -1.1545
-1.0533 -0.9603 -0.8544 -0.7191 -0.5995 -0.4899
-0.3657 -0.2377 -0.1208 0.0007 0.1231 0.2225
0.2750 0.3394 0.3780 0.3992 0.4397 0.4609
0.4609 0.4609 0.4618 0.4397 0.4452 0.4222
0.4010 0.3753 0.3559 0.3532 0.3274 0.3154
0.2952 0.2740 0.2639 0.2740 0.2464 0.2335
0.2243 0.2041 0.1857 0.1424 0.1304 0.1074
0.0789 0.0550 0.0319 0.0144 -0.0067 -0.0592
-0.0785 -0.1126 -0.1614 -0.1632 -0.1742 -0.1715
-0.1973 -0.1871 -0.1844 -0.2074 -0.2037 -0.1954
-0.1715 -0.1696 -0.1291 -0.0997 -0.0702 -0.0399
-0.0270 0.0172 0.0531 0.0899 0.1323 0.1746
0.2160 0.2593 0.3071 0.3661 0.4305 0.5317
0.6192 0.7011 0.8042 0.8999 1.0012 1.0950
1.1926 1.2709 1.3657 1.4292 1.4945 1.5682
1.5700 1.5820 1.5774 1.5359 1.5083 1.4734
1.4292 1.4200 1.3850 1.3325 1.2782 1.2046
1.1282 1.0739 1.0536 1.0058 0.9809 0.9321
0.8833 0.8622 0.8069 0.7784 0.7241 0.6698
0.6505 0.6311 0.5943 0.5538 0.5336 0.5032
0.4839 0.4673 0.4434 0.4443 0.4535 0.4636
0.5087 0.5299 0.5317 0.5345 0.5179 0.5087
0.5336 0.5538 0.5455 0.5391 0.5023 0.4737
0.4378 0.4047 0.3872 0.3458 0.3320 0.3274
0.2961 0.2362 0.1709 0.1037 0.0742 0.0485
0.0264 0.0236 -0.0086 -0.0436 -0.1246 -0.1955
-0.2498 -0.2912 -0.2976 -0.3096 -0.3078 -0.3170
-0.3547 -0.3731 -0.3814 -0.4191 -0.4191 -0.4403
-0.4495 -0.4247 -0.4265 -0.4072 -0.3906 -0.3676
-0.3630 -0.3345 -0.2967 -0.2590 -0.2148 -0.1771
-0.1117 -0.0620 0.0015 0.0724 0.1304 0.1773
0.2215 0.2657 0.3255 0.3835 0.4341 0.4627
0.4562 0.4663 0.4847 0.5216 0.5464 0.5897
0.6210 0.6200 0.6090 0.5998 0.6182 0.6228
0.6541 0.6661 0.6679 0.6744 0.6918 0.7056
0.7047 0.7195 0.6900 0.6651 0.6477 0.6587
0.6642 0.6615 0.6753 0.7020 0.7397 0.7590
0.7876 0.7922 0.8097 0.8207 0.8502 0.9109
0.9707 1.0361 1.1189 1.2147 1.2837 1.3748
1.4475 1.5221 1.5920 1.6629 1.7347 1.7863
1.8194 1.8203 1.8295 1.8175 1.8111 1.7844
1.7559 1.7034 1.6252 1.5672 1.4834 1.3840
1.2625 1.1539 1.0480 0.9137 0.7737 0.6348
0.4608 0.3098 0.1727 0.0273 -0.0970 -0.2204
-0.3511 -0.5149 -0.6502 -0.7818 -0.8812 -0.9705
-1.0534 -1.1270 -1.2356 -1.3240 -1.4179 -1.4768
-1.5495 -1.6176 -1.6655 -1.7345 -1.7667 -1.8054
-1.8569 -1.8965 -1.9462 -1.9867 -1.9867 -2.0162
-2.0567 -2.0861 -2.1248 -2.1404 -2.1469 -2.1662
-2.1607 -2.1340 -2.1266 -2.0972 -2.0778 -2.0788
-2.0613 -2.0226 -1.9913 -1.9204 -1.8413 -1.7907
-1.6959 -1.6379 -1.5780 -1.5099 -1.4519 -1.3801
-1.3157 -1.2568 -1.2071 -1.1684 -1.1740 -1.1721
-1.1905 -1.1997 -1.1804 -1.1583 -1.1445 -1.1353
-1.1353 -1.1666 -1.1629 -1.1896 -1.2062 -1.1970
-1.1988 -1.1924 -1.2108 -1.2209 -1.2467 -1.2826
-1.3111 -1.3203 -1.3222 -1.3231 -1.3222 -1.3351
-1.3470 -1.3489 -1.3433 -1.3351 -1.2909 -1.2504
-1.2329 -1.2044 -1.1896 -1.1887 -1.1832 -1.1648
-1.1188 -1.0626 -1.0184 -0.9632 -0.9282 -0.8712
-0.7892 -0.7469 -0.6723 -0.5895 -0.5315 -0.4754
-0.4220 -0.3585 -0.2996 -0.2554 -0.2084 -0.1817
-0.1320 -0.0713 -0.0372 0.0309 0.0668 0.1174
0.1708 0.2076 0.2518 0.2803 0.3227 0.3383
0.3622 0.3843 0.4037 0.4000 0.3945 0.3899
0.3650 0.3687 0.3466 0.3254 0.3061 0.2849
0.2601 0.2242 0.1828 0.1220 0.0778 0.0290
-0.0207 -0.0648 -0.1210 -0.1753 -0.2269 -0.2710
-0.2959 -0.3299 -0.3566 -0.3842 -0.3944 -0.4091
-0.4119 -0.3953 -0.4229 -0.4257 -0.4487 -0.4542
-0.4754 -0.4965 -0.4800 -0.5012 -0.5012 -0.5389
-0.5739 -0.6088 -0.6291 -0.6346 -0.6475 -0.6604
-0.6687 -0.6862 -0.7442 -0.7644 -0.7920 -0.8288
-0.8813 -0.9006 -0.9301 -0.9697 -0.9660 -1.0093
-1.0304 -1.0350 -1.0369 -1.0479 -1.0378 -1.0221
-1.0047 -0.9927 -0.9807 -0.9522 -0.9411 -0.8997
-0.8657 -0.8298 -0.7893 -0.7138 -0.6604 -0.6061
-0.5334 -0.5048 -0.4496 -0.4211 -0.3769 -0.3429
-0.3244 -0.3070 -0.3116 -0.3235 -0.3484 -0.3686
-0.3741 -0.3668 -0.3778 -0.3843 -0.4091 -0.4432
-0.4754 -0.4901 -0.5214 -0.5730 -0.6107 -0.6346
-0.6254 -0.6448 -0.6623 -0.6899 -0.7156 -0.7341
-0.7193 -0.6862 -0.6945 -0.6807 -0.6945 -0.6862
-0.6531 -0.6448 -0.6558 -0.6503 -0.6300 -0.6218
-0.5988 -0.5785 -0.5629 -0.5730 -0.5831 -0.5923
-0.6034 -0.5988 -0.5942 -0.6052 -0.6264 -0.6411
-0.6255 -0.6208 -0.6135 -0.5794 -0.5739 -0.5463
-0.5325 -0.5150 -0.4865 -0.4496 -0.4082 -0.3990
-0.3493 -0.3125 -0.2711 -0.2149 -0.1661 -0.1321
-0.1072 -0.0750 -0.0318 0.0336 0.0741 0.1109
0.1404 0.1597 0.1772 0.2039 0.2149 0.2158
0.2232 0.2039 0.1661 0.1109 0.0860 0.0492
0.0069 -0.0437 -0.1109 -0.1643 -0.2472 -0.3263
-0.3963 -0.4561 -0.5445 -0.6347 -0.7212 -0.8197
-0.8988 -1.0056 -1.1013 -1.2090 -1.3379 -1.4603
-1.6085 -1.7457 -1.8727 -1.9942 -2.0872 -2.1958
-2.2906 -2.3946 -2.5363 -2.6431 -2.7563 -2.8502
-2.8972 -2.9478 -2.9901 -3.0251 -3.0656 -3.1033
-3.1116 -3.1162 -3.0997 -3.0674 -3.0315 -2.9644
-2.9137 -2.8742 -2.7987 -2.7177 -2.6459 -2.5327
-2.4498 -2.3477 -2.2197 -2.1396 -2.0246 -1.9215
-1.8037 -1.6748 -1.5331 -1.3830 -1.2496 -1.0857
-0.9495 -0.8096 -0.6540 -0.5371 -0.4202 -0.2932
-0.2039 -0.0981 -0.0226 0.0142 0.0759 0.1155
0.1495 0.1900 0.2204 0.2388 0.2637 0.2646
0.2839 0.2876 0.2729 0.2784 0.2848 0.3005
0.3161 0.3640 0.3778 0.3953 0.3990 0.3787
0.3677 0.3686 0.3888 0.3796 0.4247 0.4496
0.4570 0.4873 0.4984 0.5177 0.5545 0.5913
0.6447 0.7009 0.7202 0.7773 0.8297 0.8776
0.9420 1.0147 1.0801 1.1399 1.2025 1.2310
1.2504 1.2495 1.2568 1.2449 1.2531 1.2375
1.2016 1.1749 1.1215 1.1031 1.0433 0.9982
0.9586 0.9181 0.9024 0.8794 0.8675 0.8481
0.8316 0.8233 0.8196 0.7957 0.7947 0.8039
0.8242 0.8389 0.8288 0.8426 0.8537 0.8583
0.8813 0.9190 0.9531 0.9862 0.9954 1.0387
1.0893 1.1592 1.2476 1.3194 1.4326 1.5274
1.6176 1.6876 1.7566 1.8441 1.9278 2.0300
2.1119 2.1782 2.2573 2.2942 2.3126 2.3669
2.3752 2.4074 2.4469 2.4690 2.5040 2.5307
2.5712 2.5942 2.6467 2.6964 2.7369 2.7857
2.8253 2.8694 2.9081 2.9375 2.9532 2.9753
3.0011 3.0333 3.0581 3.0802 3.1005 3.1272
3.1253 3.1226 3.1345 3.1198 3.1327 3.1437
3.1474 3.1327 3.1106 3.0710 3.0222 2.9790
2.9200 2.8943 2.8464 2.7691 2.6743 2.5648
2.4515 2.3402 2.2426 2.1478 2.0548 1.9490
1.8459 1.7437 1.6323 1.5541 1.4869 1.3921
1.3212 1.2411 1.1482 1.0718 0.9944 0.9346
0.8729 0.8140 0.7321 0.6576 0.5858 0.4900
0.3833 0.2921 0.2222 0.1283 0.0620 -0.0346
-0.1331 -0.2252 -0.3108 -0.3660 -0.4498 -0.5077
-0.5731 -0.6357 -0.6835 -0.7241 -0.7701 -0.8124
-0.8474 -0.8704 -0.8870 -0.9220 -0.9164 -0.9247
-0.9164 -0.9220 -0.9247 -0.9091 -0.9155 -0.8861
-0.8594 -0.8317 -0.8382 -0.8271 -0.8216 -0.8106
-0.7811 -0.7728 -0.7323 -0.6808 -0.6164 -0.5740
-0.5206 -0.4562 -0.3817 -0.3126 -0.2399 -0.1534
-0.0751 0.0086 0.0795 0.1623 0.2341 0.3216
0.4072 0.5057 0.6106 0.6953 0.8039 0.9070
1.0138 1.1122 1.2181 1.2982 1.3773 1.4583
1.5191 1.6019 1.6866 1.7713 1.8320 1.8937
1.9222 1.9259 1.9388 1.9609 1.9848 1.9876
1.9913 1.9913 1.9710 1.9360 1.9093 1.8514
1.8099 1.7630 1.6949 1.6479 1.6093 1.5688
1.4961 1.4022 1.3046 1.2162 1.1224 1.0598
1.0027 0.9208 0.7873 0.6400 0.5084 0.3786
0.2893 0.2065 0.1338 0.0325 -0.0733 -0.1976
-0.3126 -0.4001 -0.4756 -0.5409 -0.6514 -0.7140
-0.7885 -0.8732 -0.9579 -1.0729 -1.2000 -1.3298
-1.4080 -1.4595 -1.5083 -1.5681 -1.6445 -1.7762
-1.8912 -1.9851 -2.0588 -2.0781 -2.1002 -2.1342
-2.1913 -2.2806 -2.3689 -2.4361 -2.4748 -2.4748
-2.5217 -2.5319 -2.5494 -2.5926 -2.5889 -2.6184
-2.6092 -2.6138 -2.6064 -2.5917 -2.5926 -2.5834
-2.5742 -2.5540 -2.5540 -2.5484 -2.5236 -2.4868
-2.4711 -2.4500 -2.4628 -2.4822 -2.4831 -2.5015
-2.4895 -2.4840 -2.4905 -2.5089 -2.5383 -2.5531
-2.5521 -2.5632 -2.5245 -2.4840 -2.4739 -2.4417
-2.4224 -2.3901 -2.3598 -2.3183 -2.2935 -2.2511
-2.1978 -2.1499 -2.0882 -2.0440 -1.9870 -1.9474
-1.8940 -1.8517 -1.8185 -1.7771 -1.7550 -1.7247
-1.7053 -1.6878 -1.6611 -1.6565 -1.6529 -1.6252
-1.6308 -1.6354 -1.6142 -1.6032 -1.6087 -1.6160
-1.6160 -1.6299 -1.6299 -1.6253 -1.6455 -1.6455
-1.6483 -1.6832 -1.6851 -1.6842 -1.6796 -1.6519
-1.6639 -1.6750 -1.6694 -1.6694 -1.6630 -1.6538
-1.6372 -1.6068 -1.5802 -1.5479 -1.5139 -1.4817
-1.4237 -1.3786 -1.3427 -1.3003 -1.2543 -1.1917
-1.1687 -1.1549 -1.1172 -1.1015 -1.0758 -1.0472
-1.0279 -0.9865 -0.9441 -0.8889 -0.8539 -0.8116
-0.7527 -0.7140 -0.6201 -0.5354 -0.4692 -0.4001
-0.3495 -0.2722 -0.2087 -0.1433 -0.0734 -0.0043
0.0564 0.1218 0.2101 0.2635 0.3178 0.3878
0.4531 0.5203 0.5811 0.6335 0.6869 0.7523
0.8121 0.8535 0.9069 0.9769 1.0146 1.0588
1.1039 1.1287 1.1591 1.1922 1.2217 1.2392
1.2705 1.2981 1.3202 1.3496 1.3929 1.4260
1.4435 1.4776 1.4997 1.5310 1.5530 1.5696
1.5981 1.6184 1.6359 1.6506 1.6644 1.6985
1.7491 1.7887 1.8025 1.8135 1.8329 1.8172
1.8181 1.8016 1.7767 1.7813 1.7555 1.7436
1.7316 1.6994 1.6580 1.6313 1.6138 1.5991
1.5779 1.5549 1.5494 1.5402 1.5328 1.5190
1.4969 1.4748 1.4619 1.4233 1.3662 1.2999
1.2465 1.2079 1.1738 1.1517 1.1149 1.1066
1.0772 1.0652 1.0578 1.0744 1.1140 1.1029
1.1259 1.1609 1.2079 1.2502 1.3036 1.3524
1.3975 1.4665 1.5346 1.6211 1.6911 1.7730
1.8374 1.9074 1.9820 2.0344 2.1044 2.1716
2.2369 2.3004 2.3511 2.4035 2.4449 2.4818
2.5149 2.5066 2.5167 2.5112 2.4900 2.4633
2.4155 2.3823 2.2931 2.1798 2.0712 1.9663
1.8457 1.7343 1.6377 1.5144 1.3864 1.2456
1.1048 0.9676 0.8360 0.7301 0.6280 0.5322
0.4402 0.3187 0.2478 0.1806 0.1024 0.0269
-0.0799 -0.1369 -0.2161 -0.2999 -0.3680 -0.4536
-0.5153 -0.5760 -0.6681 -0.7122 -0.7426 -0.7932
-0.7914 -0.8264 -0.8844 -0.9184 -0.9322 -0.9433
-0.9249 -0.8890 -0.8834 -0.8650 -0.8439 -0.8199
-0.7942 -0.7564 -0.7076 -0.6358 -0.5944 -0.5567
-0.4610 -0.3698 -0.2879 -0.2290 -0.1646 -0.0928
-0.0274 0.0554 0.1649 0.2662 0.3297 0.3840
0.4282 0.4853 0.5497 0.6215 0.6905 0.7411
0.7706 0.7844 0.7872 0.8093 0.8636 0.8783
0.9022 0.9170 0.9059 0.8995 0.8958 0.9105
0.9363 0.9805 0.9805 0.9749 0.9759 0.9519
0.9418 0.9409 0.9317 0.9225 0.9215 0.8746
0.8056 0.7559 0.7144 0.6749 0.6380 0.6021
0.5423 0.4797 0.4006 0.3021 0.2110 0.1612
0.1143 0.0664 0.0029 -0.0864 -0.1489 -0.2474
-0.3422 -0.4260 -0.4904 -0.5420 -0.6276 -0.7215
-0.8154 -0.8927 -0.9553 -0.9912 -1.0280 -1.0528
-1.1164 -1.1863 -1.2415 -1.2876 -1.2728 -1.2894
-1.2894 -1.2885 -1.3124 -1.3400 -1.3455 -1.3216
-1.3179 -1.3179 -1.3235 -1.3078 -1.2912 -1.2968
-1.3078 -1.2958 -1.2894 -1.2728 -1.2461 -1.2360
-1.2167 -1.2241 -1.1918 -1.1523 -1.1357 -1.0943
-1.0519 -1.0409 -1.0179 -0.9580 -0.9148 -0.8660
-0.8163 -0.7776 -0.7592 -0.7574 -0.7390 -0.6865
-0.6488 -0.6166 -0.5623 -0.5383 -0.5291 -0.5558
-0.5438 -0.5107 -0.5098 -0.4923 -0.4969 -0.5264
-0.5218 -0.5172 -0.5346 -0.5227 -0.5300 -0.5531
-0.5853 -0.6359 -0.6994 -0.7371 -0.7684 -0.8182
-0.8660 -0.9433 -1.0170 -1.1053 -1.1688 -1.2232
-1.2747 -1.3290 -1.4109 -1.4910 -1.5711 -1.6217
-1.6788 -1.7266 -1.7717 -1.8196 -1.8647 -1.9291
-1.9807 -1.9954 -2.0129 -2.0286 -2.0635 -2.1169
-2.1556 -2.2080 -2.2366 -2.2844 -2.2992 -2.3019
-2.3240 -2.3130 -2.3203 -2.3249 -2.3157 -2.2872
-2.2909 -2.2522 -2.1988 -2.1593 -2.0838 -2.0405
-1.9908 -1.9209 -1.8408 -1.7754 -1.6843 -1.6134
-1.5361 -1.4450 -1.3842 -1.2839 -1.2084 -1.1394
-1.0575 -0.9848 -0.9148 -0.8430 -0.7749 -0.6829
-0.6074 -0.5328 -0.4463 -0.3929 -0.2981 -0.2337
-0.1757 -0.0938 -0.0137 0.0811 0.1566 0.2219
0.2735 0.3342 0.3950 0.4557 0.5146 0.5920
0.6582 0.7116 0.7742 0.8211 0.8718 0.9224
0.9997 1.0421 1.0678 1.1074 1.1129 1.1129
1.1267 1.1424 1.1599 1.1829 1.1875 1.2179
1.2344 1.2492 1.2768 1.2666 1.2703 1.2906
1.3348 1.3513 1.3559 1.3909 1.4065 1.4351
1.4673 1.4894 1.5271 1.5621 1.6081 1.6505
1.6744 1.7085 1.7425 1.7720 1.8051 1.8447
1.8806 1.9063 1.9340 1.9616 1.9864 2.0067
2.0380 2.0923 2.1411 2.1521 2.1650 2.1917
2.2046 2.2451 2.2920 2.3261 2.3592 2.3969
2.4264 2.4402 2.4660 2.4982 2.5240 2.5267
2.5341 2.5332 2.5267 2.5470 2.5415 2.5258
2.4982 2.4798 2.4862 2.4632 2.4356 2.4264
2.4218 2.3887 2.3482 2.3224 2.2800 2.2285
2.1769 2.1558 2.1364 2.0904 2.0499 1.9846
1.8888 1.7756 1.6965 1.6247 1.5115 1.4341
1.3541 1.2510 1.1414 1.0466 0.9362 0.8073
0.7042 0.5919 0.5026 0.4069 0.3204 0.2265
0.1124 0.0083 -0.0929 -0.1573 -0.2457 -0.3608
-0.4648 -0.5725 -0.6802 -0.7575 -0.8376 -0.9001
-0.9729 -1.0870 -1.1726 -1.2472 -1.3236 -1.3926
-1.4220 -1.4662 -1.4984 -1.5040 -1.5325 -1.5629
-1.5748 -1.5813 -1.5997 -1.5905 -1.5979 -1.5933
-1.5969 -1.6043 -1.6025 -1.6080 -1.5804 -1.5528
-1.5279 -1.5196 -1.5021 -1.4681 -1.4313 -1.4018
-1.3429 -1.2803 -1.2094 -1.1063 -1.0557 -0.9996
-0.9075 -0.8173 -0.7308 -0.6093 -0.5136 -0.4178
-0.3111 -0.2264 -0.1445 -0.0699 0.0534 0.1381
0.2246 0.3259 0.3940 0.4695 0.5578 0.6352
0.7226 0.8156 0.8901 0.9996 1.0650 1.1451
1.2362 1.3218 1.4157 1.5225 1.6173 1.6697
1.7627 1.8041 1.8566 1.9146 1.9468 1.9799
2.0094 2.0352 2.0416 2.0499 2.0296 2.0370
2.0177 2.0223 2.0066 1.9606 1.9597 1.9339
1.9081 1.8759 1.8547 1.8179 1.7977 1.7516
1.6909 1.6522 1.6025 1.5786 1.5409 1.5114
1.4774 1.4378 1.3927 1.3411 1.3080 1.2693
1.2196 1.1828 1.1432 1.1110 1.0825 1.0098
0.9647 0.9260 0.8735 0.8422 0.8073 0.7511
0.6950 0.6545 0.6075 0.5560 0.5109 0.4520
0.3802 0.3185 0.2356 0.1786 0.1206 0.0598
0.0230 -0.0589 -0.1224 -0.1638 -0.2310 -0.2982
-0.3581 -0.4437 -0.5164 -0.5569 -0.6020 -0.6443
-0.6802 -0.7235 -0.7723 -0.8247 -0.9039 -0.9628
-0.9922 -1.0346 -1.0834 -1.1395 -1.2306 -1.3328
-1.4019 -1.4644 -1.5040 -1.5326 -1.5731 -1.6218
-1.6780 -1.7461 -1.8308 -1.8566 -1.8777 -1.8971
-1.9201 -1.9827 -2.0204 -2.0747 -2.1152 -2.1382
-2.1732 -2.2054 -2.2266 -2.2266 -2.2358 -2.2441
-2.2349 -2.2349 -2.2386 -2.2100 -2.1824 -2.1557
-2.1263 -2.0959 -2.0342 -1.9633 -1.9256 -1.9017
-1.8474 -1.8004 -1.7507 -1.6918 -1.6347 -1.5722
-1.5243 -1.4718 -1.3908 -1.2923 -1.1985 -1.1110
-1.0392 -0.9527 -0.8892 -0.8100 -0.6996 -0.5919
-0.4658 -0.3719 -0.2734 -0.1740 -0.0884 -0.0083
0.0773 0.1565 0.2264 0.3083 0.3893 0.4436
0.4768 0.5348 0.5835 0.6424 0.6857 0.7216
0.7317 0.7069 0.6949 0.6885 0.7142 0.7170
0.7142 0.7014 0.6977 0.6783 0.6553 0.6452
0.6213 0.6157 0.5799 0.5642 0.5292 0.5108
0.4915 0.4593 0.4353 0.3884 0.3764 0.3267
0.2853 0.2457 0.1850 0.1334 0.1233 0.0911
0.0386 0.0294 -0.0341 -0.0801 -0.1133 -0.1501
-0.1869 -0.2283 -0.2615 -0.2881 -0.3286 -0.3912
-0.4198 -0.4658 -0.5100 -0.5624 -0.5993 -0.6333
-0.6867 -0.7116 -0.7511 -0.8054 -0.8432 -0.8929
-0.9610 -1.0346 -1.1184 -1.1607 -1.2252 -1.2776
-1.3292 -1.4258 -1.5013 -1.5823 -1.6394 -1.6891
-1.7406 -1.8134 -1.8999 -1.9827 -2.0628 -2.1548
-2.2340 -2.2902 -2.3592 -2.4190 -2.4816 -2.5295
-2.5783 -2.5985 -2.6243 -2.6326 -2.6252 -2.6372
-2.6096 -2.5911 -2.5488 -2.5074 -2.4641 -2.4135
-2.3601 -2.3012 -2.2303 -2.1309 -2.0453 -1.9717
-1.8999 -1.8152 -1.7370 -1.6458 -1.5658 -1.4746
-1.3817 -1.2998 -1.2095 -1.1322 -1.0209 -0.9380
-0.8543 -0.7521 -0.6591 -0.5588 -0.4667 -0.3894
-0.3130 -0.2339 -0.1529 -0.0553 0.0220 0.1205
0.1923 0.2438 0.3037 0.3433 0.4031 0.4648
0.5292 0.5909 0.6369 0.6755 0.7317 0.7814
0.8311 0.8734 0.8964 0.8992 0.8928 0.9038
0.9102 0.9351 0.9682 0.9995 0.9977 1.0143
1.0225 1.0014 1.0207 1.0336 1.0640 1.0916
1.0953 1.0962 1.0888 1.0695 1.0603 1.0732
1.0851 1.1054 1.1302 1.1450 1.1459 1.1459
1.1330 1.1302 1.1302 1.1275 1.1468 1.1514
1.1689 1.1864 1.1643 1.1247 1.0824 1.0695
1.0511 1.0474 1.0897 1.1100 1.0833 1.0354
0.9728 0.9240 0.9001 0.8550 0.8219 0.7979
0.7547 0.7142 0.6663 0.6258 0.5991 0.5614
0.5301 0.5255 0.5172 0.5052 0.4923 0.4767
0.4601 0.4472 0.4399 0.4371 0.4399 0.4353
0.4141 0.3846 0.3616 0.3432 0.3451 0.3414
0.3294 0.3055 0.2733 0.2631 0.2659 0.2659
0.2512 0.2383 0.2097 0.1840 0.1840 0.1950
0.1959 0.2061 0.2236 0.2208 0.2236 0.2217
0.2282 0.2401 0.2585 0.2659 0.2898 0.3073
0.3027 0.3055 0.2843 0.3009 0.3082 0.3138
0.3386 0.3717 0.3948 0.3929 0.4067 0.4214
0.4619 0.5052 0.5549 0.6175 0.6727 0.7068
0.7390 0.7638 0.7942 0.8522 0.9001 0.9710
1.0207 1.0612 1.0869 1.1063 1.1339 1.1633
1.2084 1.2471 1.2986 1.3060 1.3308 1.3603
1.3677 1.3879 1.3870 1.4054 1.4247 1.4146
1.4100 1.4201 1.4164 1.4284 1.4128 1.4137
1.4054 1.3824 1.3897 1.3833 1.3971 1.3741
1.3723 1.3778 1.3732 1.3677 1.3538 1.3584
1.3428 1.3465 1.3557 1.3649 1.3695 1.3861
1.3907 1.3989 1.3851 1.3465 1.3318 1.3115
1.2986 1.2692 1.2636 1.2682 1.2351 1.1845
1.1734 1.1587 1.1504 1.1605 1.1679 1.1836
1.1955 1.1955 1.1716 1.2093 1.2066 1.1955
1.2102 1.2425 1.2857 1.2710 1.2922 1.2876
1.3023 1.2885 1.2728 1.3032 1.2949 1.2885
1.2691 1.2563 1.2185 1.1863 1.1569 1.1200
1.0878 1.0639 1.0188 0.9442 0.9092 0.8872
0.8678 0.8356 0.8071 0.7813 0.7564 0.7288
0.6985 0.6432 0.6129 0.5963 0.5420 0.5125
0.4656 0.4140 0.3597 0.3073 0.2484 0.2014
0.1535 0.0790 0.0274 -0.0480 -0.1263 -0.1705
-0.2349 -0.3048 -0.3417 -0.4043 -0.4586 -0.5037
-0.5709 -0.6196 -0.6749 -0.7301 -0.7715 -0.8267
-0.8939 -0.9390 -0.9943 -1.0385 -1.0790 -1.1701
-1.2207 -1.2603 -1.3072 -1.3321 -1.3707 -1.4112
-1.4517 -1.4941 -1.5419 -1.5907 -1.6220 -1.6625
-1.7178 -1.7316 -1.7684 -1.8301 -1.8816 -1.9368
-1.9893 -2.0326 -2.0528 -2.1126 -2.1430 -2.1725
-2.2268 -2.2498 -2.2848 -2.3032 -2.3207 -2.3354
-2.3428 -2.3566 -2.3621 -2.3474 -2.3262 -2.3096
-2.2986 -2.2783 -2.2654 -2.2636 -2.2277 -2.2102
-2.1798 -2.1421 -2.1311 -2.0906 -2.0408 -1.9994
-1.9267 -1.8669 -1.8319 -1.7592 -1.7086 -1.6294
-1.5447 -1.4785 -1.3938 -1.3385 -1.2741 -1.2078
-1.1480 -1.1121 -1.0514 -0.9879 -0.9428 -0.8857
-0.8479 -0.8084 -0.7577 -0.7237 -0.7283 -0.6915
-0.6703 -0.6712 -0.6611 -0.6602 -0.6565 -0.6694
-0.6565 -0.6675 -0.6556 -0.6473 -0.6409 -0.6316
-0.6510 -0.6381 -0.6307 -0.6234 -0.6353 -0.6473
-0.6482 -0.6445 -0.6537 -0.6501 -0.6372 -0.6537
-0.6574 -0.6648 -0.6758 -0.6887 -0.6694 -0.6832
-0.6685 -0.6418 -0.6418 -0.5976 -0.5792 -0.5525
-0.5341 -0.4789 -0.4393 -0.3979 -0.3500 -0.3233
-0.2580 -0.2257 -0.1751 -0.1199 -0.0637 -0.0214
0.0394 0.0826 0.1222 0.1719 0.2096 0.2759
0.3109 0.3670 0.3946 0.4453 0.4784 0.5171
0.5704 0.5787 0.6008 0.6027 0.6174 0.5971
0.6045 0.6045 0.5889 0.5668 0.5327 0.5244
0.5033 0.4701 0.4370 0.4342 0.3937 0.3615
0.3449 0.3293 0.3007 0.2713 0.2382 0.1949
0.1792 0.1544 0.1231 0.1001 0.0679 0.0108
-0.0168 -0.0702 -0.0923 -0.1337 -0.1862 -0.2156
-0.2837 -0.3003 -0.3362 -0.3730 -0.4117 -0.4494
-0.4909 -0.5139 -0.5498 -0.5737 -0.5884 -0.6372
-0.6483 -0.7090 -0.7302 -0.7569 -0.7744 -0.7937
-0.8176 -0.8342 -0.8867 -0.9032 -0.9502 -0.9502
-0.9732 -0.9897 -1.0008 -1.0404 -1.0542 -1.0689
-1.0846 -1.1168 -1.1186 -1.1416 -1.1490 -1.1564
-1.1674 -1.1757 -1.1959 -1.2015 -1.2291 -1.2364
-1.2429 -1.2438 -1.2401 -1.2447 -1.2410 -1.2521
-1.2502 -1.2171 -1.2024 -1.1932 -1.1665 -1.1573
-1.1462 -1.1297 -1.1048 -1.0735 -1.0229 -0.9934
-0.9631 -0.9170 -0.8959 -0.8600 -0.8342 -0.7983
-0.7458 -0.6833 -0.6234 -0.5820 -0.5433 -0.4973
-0.4485 -0.3998 -0.3178 -0.2562 -0.2028 -0.1512
-0.0914 -0.0380 0.0080 0.0752 0.1194 0.1811
0.2160 0.2409 0.2777 0.3173 0.3651 0.4121
0.4581 0.4673 0.4968 0.5235 0.5501 0.5796
0.5980 0.6302 0.6532 0.6772 0.6983 0.7306
0.7692 0.8042 0.8327 0.8705 0.9008 0.9220
0.9551 0.9993 1.0398 1.0720 1.1162 1.1429
1.1853 1.2294 1.2561 1.3104 1.3822 1.4135
1.4457 1.5111 1.5396 1.5764 1.6151 1.6473
1.6759 1.6897 1.7117 1.7246 1.7384 1.7449
1.7329 1.7163 1.7200 1.6979 1.6841 1.6685
1.6436 1.6418 1.5939 1.5378 1.5028 1.4697
1.4384 1.4246 1.3960 1.3767 1.3629 1.3362
1.3316 1.3067 1.2754 1.2478 1.2313 1.2119
1.1990 1.1696 1.1144 1.0720 1.0380 1.0039
0.9588 0.9238 0.8806 0.8704 0.8263 0.7858
0.7664 0.7204 0.7075 0.6514 0.6081 0.5787
0.5308 0.4930 0.4525 0.4120 0.3863 0.3467
0.3182 0.2970 0.2454 0.2261 0.1930 0.1654
0.1350 0.1193 0.1175 0.1065 0.1065 0.0807
0.0880 0.1138 0.1304 0.1396 0.1736 0.2022
0.2372 0.2749 0.3080 0.3476 0.3780 0.4240
0.4443 0.4986 0.5087 0.5225 0.5584 0.5694
0.6044 0.6219 0.6385 0.6412 0.6771 0.6909
0.6937 0.7093 0.7158 0.7222 0.7508 0.7673
0.7480 0.7544 0.7462 0.7563 0.7314 0.7158
0.7011 0.6624 0.6375 0.6081 0.5851 0.5160
0.4801 0.4479 0.4129 0.3816 0.3292 0.2878
0.2316 0.1893 0.1607 0.1248 0.0945 0.0751
0.0457 0.0245 -0.0077 -0.0399 -0.0859 -0.1338
-0.1614 -0.2065 -0.2489 -0.2811 -0.2977 -0.3391
-0.3575 -0.3888 -0.4468 -0.4946 -0.5425 -0.5581
-0.5858 -0.6069 -0.6355 -0.6612 -0.6732 -0.7109
-0.7514 -0.7662 -0.7975 -0.8416 -0.8702 -0.9180
-0.9392 -0.9705 -1.0083 -1.0322 -1.0580 -1.0902
-1.1463 -1.1629 -1.1767 -1.1923 -1.1951 -1.2098
-1.2255 -1.2375 -1.2595 -1.2844 -1.3010 -1.3231
-1.3267 -1.3488 -1.3801 -1.3810 -1.4004 -1.4317
-1.4584 -1.4933 -1.5118 -1.5256 -1.5302 -1.5320
-1.5384 -1.5200 -1.5219 -1.5164 -1.5016 -1.4878
-1.4630 -1.4317 -1.3866 -1.3378 -1.2780 -1.2402
-1.1804 -1.1325 -1.0902 -1.0184 -0.9880 -0.9457
-0.8960 -0.8417 -0.7874 -0.7285 -0.6723 -0.6217
-0.5545 -0.5214 -0.4624 -0.3962 -0.3428 -0.2765
-0.2204 -0.1513 -0.0731 0.0051 0.0880 0.1570
0.2380 0.3328 0.4083 0.4847 0.5583 0.6633
0.7792 0.8685 0.9504 1.0287 1.1170 1.2054
1.2975 1.3610 1.4447 1.5487 1.6435 1.7485
1.8368 1.9270 1.9887 2.0476 2.1084 2.1875
2.2474 2.2860 2.3624 2.4084 2.4710 2.5327
2.5714 2.5953 2.6247 2.6542 2.6597 2.6837
2.6818 2.6763 2.6919 2.6790 2.6698 2.6533
2.6155 2.5953 2.5539 2.5318 2.4959 2.4453
2.4176 2.3698 2.3376 2.2814 2.2262 2.1599
2.0817 2.0320 1.9758 1.9123 1.8571 1.7825
1.7089 1.6444 1.5478 1.4999 1.4383 1.3867
1.3416 1.2726 1.2109 1.1373 1.0940 1.0158
0.9633 0.9044 0.8317 0.7838 0.7083 0.6430
0.5822 0.5252 0.4819 0.4221 0.3641 0.3273
0.2711 0.2536 0.2223 0.1809 0.1726 0.1450
0.1340 0.1303 0.1211 0.1100 0.1082 0.0944
0.0741 0.0447 0.0281 -0.0032 -0.0566 -0.0667
-0.1007 -0.1431 -0.1735 -0.2066 -0.2600 -0.2885
-0.3263 -0.3852 -0.4238 -0.4919 -0.5389 -0.5941
-0.6374 -0.6954 -0.7791 -0.8371 -0.9236 -0.9807
-1.0240 -1.1077 -1.1574 -1.2127 -1.2909 -1.3682
-1.4474 -1.5137 -1.5836 -1.6260 -1.7042 -1.7695
-1.8423 -1.9306 -1.9895 -2.0604 -2.0853 -2.1543
-2.2187 -2.2611 -2.3191 -2.3771 -2.4323 -2.4792
-2.5446 -2.5703 -2.6081 -2.6357 -2.6532 -2.6652
-2.6670 -2.6532 -2.6099 -2.5943 -2.5621 -2.5252
-2.4866 -2.4130 -2.3209 -2.2298 -2.1488 -2.0733
-1.9619 -1.8340 -1.7254 -1.6195 -1.5238 -1.4133
-1.3112 -1.1980 -1.1041 -1.0148 -0.9209 -0.8712
-0.7994 -0.7322 -0.6540 -0.5840 -0.5481 -0.5104
-0.4717 -0.4165 -0.3751 -0.3539 -0.3097 -0.2757
-0.2738 -0.2370 -0.2287 -0.2112 -0.1763 -0.1680
-0.1275 -0.0999 -0.0741 -0.0437 0.0051 0.0446
0.0759 0.1321 0.1625 0.1892 0.2508 0.2978
0.3355 0.4018 0.4423 0.4938 0.5757 0.6273
0.6659 0.7184 0.7589 0.7893 0.8399 0.8767
0.9402 0.9973 1.0231 1.0525 1.0498 1.0848
1.1004 1.1133 1.1731 1.1805 1.1851 1.1878
1.1814 1.1915 1.1878 1.1759 1.1621 1.1335
1.1225 1.0875 1.0396 1.0157 0.9835 0.9458
0.9089 0.8832 0.8362 0.7930 0.7561 0.7064
0.6512 0.6024 0.5582 0.5196 0.4920 0.4570
0.4377 0.3999 0.3769 0.3392 0.3051 0.2931
0.2563 0.2526 0.2453 0.2213 0.2167 0.2204
0.1937 0.1827 0.1744 0.1551 0.1440 0.1367
0.1459 0.1385 0.1090 0.0713 0.0695 0.0658
0.0630 0.0547 0.0575 0.0308 0.0225 0.0299
0.0069 0.0511 0.0538 0.0962 0.1367 0.1403
0.1707 0.1790 0.1992 0.2361 0.2987 0.3382
0.4027 0.4533 0.4735 0.5177 0.5591 0.5812
0.6254 0.6659 0.6862 0.7230 0.7267 0.7460
0.7653 0.7948 0.8132 0.8380 0.8472 0.8601
0.8896 0.8859 0.9107 0.9089 0.9310 0.9338
0.9384 0.9522 0.9420 0.9393 0.9144 0.9181
0.9015 0.9107 0.9034 0.8831 0.8914 0.8758
0.8647 0.8371 0.8187 0.8021 0.7699 0.7524
0.7414 0.6935 0.6595 0.6282 0.6033 0.5821
0.5195 0.4827 0.4385 0.3971 0.3511 0.2950
0.2655 0.2038 0.1532 0.1302 0.0750 0.0437
0.0032 -0.0456 -0.0742 -0.1367 -0.1671 -0.2095
-0.2619 -0.2960 -0.3374 -0.3834 -0.4525 -0.4874
-0.5160 -0.5556 -0.6007 -0.6246 -0.6430 -0.6789
-0.7065 -0.7470 -0.8022 -0.8538 -0.8869 -0.9136
-0.9247 -0.9495 -0.9679 -0.9919 -1.0287 -1.0572
-1.0876 -1.0830 -1.0784 -1.0747 -1.0839 -1.1042
-1.1207 -1.1419 -1.1318 -1.0977 -1.0591 -1.0121
-0.9790 -0.9716 -0.9679 -0.9753 -0.9550 -0.9284
-0.9081 -0.8860 -0.8667 -0.8667 -0.8731 -0.8658
-0.8731 -0.8639 -0.8685 -0.8602 -0.8722 -0.8897
-0.8602 -0.8602 -0.8418 -0.8382 -0.8695 -0.8722
-0.8869 -0.9146 -0.9155 -0.9072 -0.8869 -0.8823
-0.8869 -0.8952 -0.9201 -0.9044 -0.8851 -0.8649
-0.8446 -0.8271 -0.7774 -0.7360 -0.7047 -0.6716
-0.6255 -0.5869 -0.5593 -0.5096 -0.4562 -0.4111
-0.3623 -0.2933 -0.2528 -0.2040 -0.1368 -0.1129
-0.0751 -0.0355 -0.0079 0.0418 0.0804 0.0887
0.1044 0.1301 0.1458 0.1716 0.1927 0.2019
0.2185 0.2286 0.2259 0.2305 0.2240 0.2231
0.2268 0.2277 0.2489 0.2682 0.2765 0.2507
0.2369 0.2369 0.1835 0.1495 0.1596 0.1412
0.1375 0.1265 0.0777 0.0178 