Archivo de aceleración parte de la Red Nacional de Acelerógrafos (RENAC) Ecuador
          
Evento: 201604162358
Fecha del evento UTM (aammdd):                  2016    4   16
Hora del registro UTM (hhmmss): 23   59 15.00
Estación:                                      ACHN 
Componente:                                        Z
Frecuencia de muestreo (Hz):            1.000000e+02
Unidades: cm/s^2
_____________________________________________
11.2700 14.0126 12.7365 10.8135 7.8328 4.1819
3.3894 6.4541 11.4763 15.1991 15.4754 11.0926
2.8115 -5.1251 -8.5725 -5.9298 2.1609 13.0212
21.5516 21.5693 11.4222 -5.3715 -24.8500 -40.8941
-46.5698 -38.9123 -19.6261 5.3815 27.4317 35.9098
26.8100 7.4053 -11.9350 -23.9100 -26.2195 -19.6261
-10.1810 -6.5534 -9.3231 -13.9971 -19.1230 -24.1676
-26.8197 -26.3044 -24.6708 -22.3725 -18.0765 -14.7495
-16.3785 -20.9685 -25.0983 -26.8953 -23.5739 -11.7875
8.7971 28.5519 36.2346 30.9258 15.5548 -5.7534
-24.2302 -31.2781 -24.3058 -5.2427 19.2440 39.1173
47.0987 41.6135 26.7447 9.3498 -1.9661 -1.3818
8.7159 19.1329 19.7742 7.6825 -11.1238 -28.3646
-38.3802 -36.2975 -22.6301 -6.5011 2.5931 2.2430
-1.2847 0.7121 11.8824 28.9356 43.4422 48.0882
42.8336 32.7163 23.6146 18.6708 16.2045 12.8812
5.1387 -6.8680 -18.0009 -23.1482 -21.0143 -14.7607
-10.3294 -13.6349 -24.3646 -37.3160 -45.3936 -41.9490
-26.1831 -3.0285 20.3632 36.0414 37.3222 26.7101
13.5393 5.0295 2.0162 0.7074 0.4134 1.5214
3.0337 4.9054 7.8132 13.8642 22.1005 26.7493
23.5026 13.2639 1.4822 -6.0502 -6.5954 -0.9552
6.6986 8.9726 1.2890 -13.1803 -28.4823 -39.3324
-42.2654 -35.4611 -19.0912 3.3147 26.8380 45.3858
54.1159 50.2232 32.6584 5.1742 -24.1994 -45.2144
-51.3204 -43.0664 -26.3399 -9.2699 1.7735 3.2092
-4.8479 -17.4875 -26.3184 -25.9880 -18.3902 -9.1728
-3.4457 -1.1157 3.0206 11.9020 23.5185 32.5632
32.2943 20.3166 1.6344 -14.9269 -20.3524 -10.2071
12.1232 37.2288 55.0130 60.5962 52.9284 35.4729
14.9414 -4.1496 -17.7507 -22.6488 -16.2805 0.1557
18.6671 30.3228 26.6420 5.2153 -24.9966 -49.4954
-56.9233 -47.0599 -28.1976 -10.1968 0.0857 2.7350
2.3392 2.9347 4.9623 6.1628 3.8169 -3.6530
-14.3379 -24.8566 -34.0600 -40.7093 -41.6643 -34.2215
-17.4315 7.0309 31.8378 47.3554 48.9797 37.0169
19.9217 9.4394 9.9985 19.5585 32.6154 47.3676
61.5615 67.1830 57.2888 29.5797 -7.1695 -39.6367
-58.8864 -59.3896 -42.6883 -15.5066 11.2700 29.1512
36.8470 35.4701 30.2275 28.0693 32.3531 37.8281
34.5441 17.8129 -8.8871 -35.1755 -49.6700 -46.0125
-26.8188 1.3935 30.6560 52.3058 62.1514 57.8004
40.4727 17.3116 -1.5246 -12.7481 -22.6264 -37.1218
-56.1970 -72.7387 -81.6966 -83.1304 -77.2578 -63.2543
-41.5924 -19.2976 -6.6150 -6.9464 -16.9461 -30.5136
-38.1104 -31.6487 -10.0932 17.8148 37.5555 40.5045
29.1904 15.8227 13.4796 23.9040 39.4244 51.0110
51.9231 37.6741 8.9269 -23.9529 -49.1043 -60.2522
-55.3438 -35.7151 -8.5632 15.5659 30.3881 34.6542
30.5645 18.6110 -0.7629 -22.5760 -38.0302 -38.7051
-23.2295 4.6925 36.4400 63.2987 77.7895 72.3826
46.3584 6.3467 -32.9668 -54.2647 -47.2102 -14.0317
30.4450 67.5629 82.4019 69.1592 32.3858 -10.6953
-38.1916 -41.2395 -22.8841 3.1653 22.7026 29.4593
24.4473 17.2378 15.0534 20.0850 28.9570 35.2852
30.1584 10.2039 -15.2574 -33.5391 -36.7643 -26.1672
-9.0925 2.7013 0.5795 -14.5955 -31.3323 -39.2437
-36.8203 -23.9100 -2.3013 22.4739 42.2874 51.7326
47.9137 29.8504 2.1067 -24.5747 -36.8735 -27.5796
-3.1480 20.5284 28.3381 10.8079 -25.2076 -63.7920
-92.7595 -102.9534 -93.9096 -71.0481 -43.4650 -21.1832
-8.0115 -0.5164 8.0391 17.7018 21.0101 15.0282
4.0082 -7.6633 -16.8070 -21.6220 -23.6290 -24.0976
-23.7821 -29.7276 -39.0841 -37.7482 -22.2969 0.1435
18.5783 25.7560 20.2017 6.4531 -6.4787 -11.5719
-9.9355 -8.5147 -14.2240 -28.1696 -40.7691 -42.5016
-30.5584 -11.8576 1.6829 4.9025 1.7314 -0.3129
4.2108 17.3769 35.6614 51.0885 54.5135 41.8113
19.3307 4.5319 11.4044 38.6234 75.3754 103.1751
106.3490 82.4308 38.0213 -11.0846 -45.5990 -54.0397
-33.5970 5.0192 38.5562 49.9590 33.2717 -7.9835
-58.9546 -104.0726 -129.0998 -128.9691 -110.5642 -84.7323
-64.1953 -51.9543 -49.1855 -50.8826 -48.1876 -45.5757
-44.5077 -41.9061 -37.8080 -36.9202 -43.1887 -47.5239
-34.4717 2.4456 50.6077 86.6204 92.0870 60.5206
8.4004 -33.9638 -39.7497 0.9155 70.8339 139.1037
172.8713 156.3623 95.8107 19.8414 -29.9059 -37.7763
-8.7518 42.9474 84.4369 89.0101 57.7612 6.4325
-47.1552 -84.3832 -89.7275 -63.0751 -22.2699 13.7381
38.8475 54.3091 55.6262 37.8626 10.0349 -16.7921
-34.3820 -37.5662 -30.2074 -14.3285 3.2764 14.9666
18.3132 18.3860 19.1347 23.8162 42.0223 63.9605
82.4271 90.8211 82.4187 65.4999 40.8853 13.3405
-9.4557 -21.0852 -23.2659 -21.5828 -14.8186 -6.2043
2.8600 13.2751 23.6706 30.6140 32.9851 32.2401
25.3602 11.6732 -3.4028 -15.3703 -18.8775 -13.6555
1.6455 18.8948 33.3482 36.8628 25.9007 11.5024
-6.1716 -1.3239 0.5589 12.1269 32.2513 15.6677
8.7355 -5.5051 -7.7791 16.3678 36.1515 61.7024
66.6696 50.1615 19.9823 -13.1747 -31.0102 -29.2637
-9.7983 13.1323 29.5227 31.9638 17.8465 -7.6802
-34.8189 -48.5115 -41.5420 -19.0894 2.7424 5.1378
-16.2329 -51.4259 -83.0997 -95.3584 -83.3601 -53.9501
-23.1791 -4.8208 -0.8740 -9.3054 -21.4232 -27.6954
-26.5425 -20.9023 -14.2595 -6.8148 -4.1711 -6.6402
-15.7633 -31.7141 -40.0297 -34.2719 -13.0441 17.5739
56.1966 84.7048 89.5646 73.5252 35.9769 12.2903
-7.0164 -12.2011 10.3439 31.8901 56.1331 62.4604
62.0637 61.9376 53.5632 40.4559 15.0095 -11.0482
-34.1487 -42.0153 -33.3804 -18.6908 -0.0189 9.3731
3.6787 -17.0731 -45.6298 -67.6847 -73.6573 -65.7711
-57.0652 -55.8461 -61.7402 -71.3571 -78.2865 -69.7254
-51.2047 -25.8872 -6.7345 0.5823 6.5361 -3.8696
-8.9815 -7.4804 2.0964 26.5112 43.2639 60.9033
69.1956 69.8136 67.5928 60.5159 52.9760 35.6558
10.7826 -22.5705 -50.8668 -62.7587 -54.7100 -28.5075
-3.5410 19.9366 27.8760 22.9032 15.7330 -4.9767
-24.6344 -44.0615 -57.2025 -58.3908 -50.8341 -25.9880
10.7808 55.0503 89.7896 97.9914 69.5373 11.8235
-54.2451 -108.2398 -129.6320 -113.3909 -58.1108 10.8723
72.5861 110.6879 106.7159 69.8985 15.5902 -28.3600
-46.5876 -37.8024 -4.8124 41.0393 84.6637 116.0322
125.4270 110.1166 80.5199 43.4011 15.3036 1.5251
6.2430 27.1609 54.8458 75.8151 68.0651 36.6201
-7.2414 -46.0060 -60.2027 -40.2529 4.5076 50.5442
79.0067 74.6314 34.9921 -26.8860 -84.6633 -116.1475
-110.0107 -69.2549 -11.5169 44.5670 82.8238 88.0570
65.6884 26.2312 -19.4843 -47.4987 -60.2363 -64.7069
-63.2469 -63.5811 -60.1178 -55.9954 -56.7749 -54.0864
-48.1139 -39.9999 -23.7644 -3.1228 16.4863 29.3920
31.0910 19.9814 -0.9375 -23.0811 -35.0495 -26.3231
7.7721 60.0025 111.6802 144.6338 141.2713 106.2454
58.2718 16.2651 -18.8906 -33.1461 -11.0408 12.3154
36.1422 50.3603 35.0248 7.8962 -28.9500 -55.3588
-59.7696 -52.9018 -36.8811 -17.7359 0.9099 14.8760
23.3438 26.2106 28.5574 28.7656 14.7808 -11.8520
-45.6466 -71.6316 -81.2121 -74.5264 -49.7130 -16.6754
14.0126 30.6457 23.3289 -6.4536 -47.1309 -82.0374
-104.7495 -106.2515 -85.8470 -55.7947 -19.3527 8.6720
20.9877 19.6920 2.8852 -20.5812 -41.6260 -55.1376
-56.5621 -42.7631 -19.4694 1.2040 13.1528 15.7433
13.0846 12.6786 15.1057 19.8871 25.3826 30.1033
34.4768 35.1386 37.2026 44.1311 54.1830 64.4282
67.2390 59.9147 41.7618 15.9281 -10.3173 -29.6007
-39.6984 -41.9266 -41.2648 -42.9358 -43.5640 -42.9208
-36.7578 -21.3821 1.8892 27.3598 45.9953 55.0960
51.6644 37.4920 18.3757 1.8807 -3.8706 3.1036
17.7073 32.8432 37.9802 27.5829 9.6634 -6.9838
-14.9652 -15.8763 -12.4550 -6.4461 -3.8771 -2.4768
-1.4257 1.1237 9.9686 22.5821 33.7197 36.0096
21.2108 -8.1712 -38.6267 -60.9206 -67.9051 -51.1478
-12.9731 30.2013 59.2015 66.3428 48.5447 14.6800
-13.4987 -27.0373 -21.4689 -0.0665 25.0568 44.2991
49.2513 40.9683 25.4087 12.1203 7.4612 12.3528
27.5903 48.0210 64.9061 71.2605 67.8476 55.1314
30.0772 -3.8864 -38.9460 -65.9998 -79.5505 -79.6429
-66.7718 -49.2845 -39.3857 -39.4687 -46.9909 -57.7990
-67.1928 -69.9261 -64.1319 -53.0391 -40.4125 -31.9858
-25.0909 -15.9342 -5.5042 8.2248 21.6458 30.1285
35.2665 35.2198 25.8428 9.8818 -10.3864 -31.5638
-48.2026 -56.2531 -54.5644 -44.0728 -26.0534 -6.8718
5.8397 9.6484 9.4897 7.1233 4.1464 3.5209
2.6014 -2.9483 -14.5974 -31.9363 -52.1625 -65.7842
-66.2640 -49.8325 -17.1216 21.2136 51.0688 62.2485
54.9774 38.7578 25.5432 19.1169 16.9223 16.6618
16.7318 19.2103 23.5352 26.5513 27.7275 27.1245
23.6873 15.2252 0.6438 -18.7226 -34.5100 -40.1866
-39.0169 -32.9137 -24.3983 -21.2244 -25.7603 -34.3942
-40.8111 -37.4374 -26.8898 -15.8381 -9.0599 -13.2905
-26.9262 -41.8333 -47.8273 -38.5941 -17.5044 7.3585
26.3992 32.5594 16.5190 -17.2710 -49.7242 -71.4972
-74.3528 -54.9042 -20.2797 22.0201 61.6510 89.6654
100.0488 90.5550 67.0700 35.7575 7.0878 -7.9565
-6.7084 11.1691 37.4621 57.6117 60.2414 39.6950
5.3422 -26.9897 -49.3340 -54.3142 -39.6909 -11.5468
19.4296 40.6743 43.5103 26.7166 -0.2224 -26.9421
-45.0968 -51.4241 -46.0667 -33.3973 -23.3649 -18.8206
-17.7770 -17.8134 -23.0615 -30.3830 -34.0666 -39.7591
-42.0200 -35.7982 -23.4993 -9.1645 -2.4722 -6.4694
-17.1590 -31.2409 -43.4371 -47.4950 -42.9638 -36.2687
-31.6731 -28.0436 -28.8502 -36.1679 -45.6728 -52.9336
-54.4188 -49.8521 -39.9850 -26.7881 -15.0549 -8.7407
-12.3514 -29.3543 -54.7380 -80.8612 -101.2349 -110.2366
-106.5175 -89.6230 -62.5739 -32.4348 -7.0622 8.3340
12.9950 8.8185 -1.4323 -14.5909 -24.0893 -25.9918
-18.9018 -6.6151 0.2452 -3.3973 -19.0083 -43.9001
-67.6764 -78.3613 -69.7441 -43.9561 -9.1010 24.1018
45.3745 50.1596 40.1851 19.8170 -0.3709 -15.1641
-19.7541 -12.2945 0.7643 15.9859 21.4096 13.9238
-2.3303 -22.2130 -33.0799 -31.2334 -15.6514 12.3649
46.0839 75.7217 89.4124 84.1241 63.5012 36.4371
15.4146 4.8315 9.0528 28.8972 51.9426 70.1113
78.4848 75.2307 67.4667 58.0832 51.0623 47.1136
45.7992 51.0175 61.7238 75.6097 85.4805 83.4978
69.0714 48.1348 26.9014 12.5040 6.7863 5.0780
5.4019 4.9473 5.7697 9.5186 16.7617 26.2143
32.0020 32.2924 23.5464 7.1653 -10.9344 -26.7134
-33.7828 -32.2089 -23.9652 -12.0341 -4.0769 -0.7443
-1.0635 -2.7849 -1.0402 3.9540 8.6887 7.8691
-0.7760 -14.8308 -26.8179 -30.5407 -24.1061 -9.6406
4.5309 13.0809 15.3642 14.2608 15.4520 22.1685
30.9621 36.9123 37.9186 31.3411 18.1181 2.4548
-12.7734 -25.3365 -32.2696 -31.4416 -24.4328 -18.9130
-23.6478 -37.2424 -55.7332 -75.7447 -90.1383 -97.8229
-96.5664 -82.6227 -60.6863 -38.9507 -25.3187 -22.7787
-28.5029 -38.9871 -52.2129 -62.1258 -64.2962 -61.8859
-55.5661 -45.9323 -35.0626 -23.4284 -13.2495 -4.8312
2.0777 4.7139 4.4768 5.9480 9.7893 17.2415
27.4157 34.9678 39.5634 40.2439 38.4964 39.6549
46.5217 63.0494 86.5531 108.4279 118.7281 110.8475
85.4142 50.5395 15.2662 -17.2692 -44.4098 -64.7480
-77.1963 -77.5827 -64.3307 -44.0355 -21.9824 -4.0592
5.1769 4.8997 -5.1467 -19.1371 -29.4308 -30.8236
-26.0842 -18.5770 -12.7249 -10.7048 -11.6149 -15.4815
-14.1046 -7.0137 -0.9161 3.8569 19.6210 39.1611
41.0477 37.7795 27.5586 10.3158 -1.3931 -7.7848
0.7278 9.2283 6.5818 2.2382 1.6725 8.4871
13.8827 14.9077 11.8020 1.6520 -4.3682 0.5794
9.2320 17.5047 22.5624 24.6012 28.5891 34.2350
38.6738 42.2892 46.0848 48.4401 45.5247 37.8019
27.9432 18.2637 13.5457 13.8109 17.2321 23.6360
29.1875 29.0914 22.8444 13.5224 4.1519 -1.8906
-3.6494 -4.4503 -5.3661 -4.3458 0.1705 9.6894
21.9846 33.0158 39.6381 36.9001 22.6763 -0.2131
-23.4564 -38.1852 -39.0982 -25.3832 -3.6923 16.1418
25.4694 22.9246 13.5728 1.0013 -7.6186 -7.1649
-2.0951 5.4962 12.7205 16.4545 13.5551 4.7213
-5.5266 -15.6486 -18.5257 -22.4529 -33.2703 -42.9405
-53.1838 -60.0357 -63.0378 -63.8463 -61.5134 -55.8359
-46.0976 -33.6008 -13.3774 5.1564 20.3118 36.4305
43.3123 43.7819 39.1629 29.7280 18.7024 11.0776
11.1578 17.0109 29.1296 42.5721 53.4455 61.2906
64.3432 62.0066 56.2161 51.8996 52.4980 58.6880
67.0886 72.2453 68.4739 55.7522 38.1155 16.4023
-3.6410 -17.3961 -25.5213 -23.3808 -14.7478 -7.9407
-2.2790 -0.1077 0.3442 1.9050 1.0751 0.5365
5.6875 12.1249 14.6529 16.0438 19.4585 26.9294
35.4233 41.7506 47.2601 52.0182 53.6471 52.5055
48.3178 38.0548 22.1284 3.0896 -13.6229 -23.6665
-25.6894 -19.9082 -8.1349 4.8586 15.1682 22.0555
22.6577 17.1668 9.2918 0.9836 -6.9950 -15.6579
-26.1916 -36.3864 -44.5638 -51.0311 -56.4343 -59.5092
-58.9379 -57.1045 -54.5579 -49.8680 -42.7155 -33.7735
-26.0497 -20.9014 -18.3866 -17.3691 -12.1947 -3.0239
7.6460 18.2058 24.0588 26.2796 24.0224 15.3343
5.1125 -4.5782 -12.6250 -15.5842 -11.5645 -2.5889
9.2105 22.0387 32.6788 41.0523 44.1861 39.8630
31.3392 23.6677 19.4511 19.9766 24.6105 28.2951
32.5014 35.0051 33.4555 29.4498 21.9874 15.0011
9.6745 7.0654 5.9648 6.1888 8.6084 10.5977
11.1672 7.7337 5.3739 5.1853 7.4770 15.1850
20.8868 25.4535 27.0750 22.3813 13.7670 0.4422
-14.0169 -30.2057 -45.8773 -54.3367 -53.6748 -46.7006
-38.4046 -32.6057 -30.7247 -28.2313 -24.5402 -21.8499
-18.8608 -16.1835 -11.9109 -6.3836 -1.5602 5.4103
12.2855 17.0174 18.5885 17.3890 14.4904 10.7415
13.3964 21.3237 31.5520 46.5992 58.2577 59.1230
55.1594 50.5638 47.5429 45.9924 42.0222 36.3353
26.0070 13.2209 1.5362 -8.1703 -10.2885 -6.3425
1.7136 12.0484 21.6215 28.0197 29.1810 27.3121
22.2973 16.0839 13.2255 14.7509 20.1409 24.2157
22.2880 15.9318 7.0803 -2.3490 -6.9064 -4.4270
2.7880 14.5035 26.6241 36.4035 41.5069 38.8772
32.2942 23.5333 16.3742 14.3868 15.2979 17.4039
17.7633 12.8904 2.9971 -9.2373 -20.7596 -26.2084
-24.2686 -17.2113 -6.8849 2.6508 8.0875 7.5853
2.0104 -6.6543 -14.8430 -19.4526 -19.4153 -14.6442
-7.0847 0.1192 3.8196 2.6032 -4.9554 -15.6580
-24.8138 -29.1116 -24.5542 -11.6448 5.5409 19.4361
25.7867 27.0096 23.7274 17.2097 11.5788 8.4003
6.3465 6.5585 9.5485 13.6857 19.0235 24.4285
28.2633 28.6666 23.7722 13.6941 1.4037 -10.5134
-20.8305 -27.1242 -30.5800 -31.9336 -32.9996 -37.3049
-43.1263 -50.9331 -58.9267 -63.5065 -64.4195 -59.8014
-50.4496 -39.7125 -29.9004 -20.7428 -12.7221 -7.6196
-4.3038 -3.3301 -3.9276 -2.9726 -0.1796 5.2226
10.8778 13.9387 14.4830 12.5394 11.0626 9.9433
8.5664 6.6910 3.6002 4.3918 5.5932 -0.2767
-12.4729 -25.4681 -34.1889 -41.0698 -47.7359 -54.0744
-58.6934 -60.2103 -61.0738 -58.9865 -53.0457 -49.7653
-49.6683 -51.8162 -57.4873 -61.1923 -61.4005 -55.8023
-44.4799 -30.1039 -11.9520 3.7766 18.8835 28.1625
29.7224 23.2765 10.5296 10.6379 10.6360 8.2714
12.5497 14.6164 12.3900 1.8891 -11.5636 -25.2273
-35.0515 -36.5105 -31.2363 -18.7320 -8.6959 3.0811
23.6621 39.6931 48.2561 52.5997 51.6867 50.2211
52.4186 54.6263 57.1627 57.1683 49.1868 37.9036
31.1460 35.6006 46.4386 64.8370 92.8159 121.5724
134.6657 119.1397 95.2822 80.3453 75.5387 74.4213
68.9612 59.7970 39.1629 15.1709 -6.4676 -24.9547
-35.9738 -48.7609 -57.2231 -62.2911 -73.7181 -90.0282
-106.2385 -116.3446 -121.5162 -119.4233 -111.8544 -97.1378
-72.6193 -51.2851 -34.8863 -20.9575 -12.1517 -12.5111
-19.9344 -27.4453 -32.0755 -28.6533 -21.5979 -15.2920
-8.4644 -2.9343 1.3812 7.3295 14.6930 16.9418
13.3543 7.3650 1.5343 -3.9817 -12.2003 -19.1577
-23.0625 -25.1209 -25.3776 -22.6695 -16.8137 -9.9225
-0.8237 6.5631 11.4052 15.1485 16.9119 19.1364
21.1061 23.7125 26.1246 27.2206 30.7464 37.1558
44.4624 50.1119 52.1880 47.3403 37.5712 28.1643
15.8729 3.4564 -6.3127 -16.9303 -24.8072 -30.8741
-36.0317 -38.3010 -40.1531 -39.8833 -36.3920 -32.9492
-31.0505 -31.8160 -38.2646 -48.5527 -58.4441 -63.7632
-60.7545 -50.2489 -34.8050 -23.5237 -16.2676 -9.7779
-11.0017 -16.0146 -24.7886 -34.7789 -42.4234 -48.5051
-47.8703 -43.2047 -34.8013 -26.4399 -20.3759 -13.3018
-4.3635 4.9463 10.0395 12.7279 12.0904 7.8663
1.0461 -7.5711 -12.1293 -11.2407 -5.3456 3.2986
10.6341 14.7144 12.7074 5.6735 -2.4592 -6.9307
-4.8592 2.6499 14.9665 26.7015 33.2333 32.0010
22.8312 10.1823 -4.4961 -16.2629 -21.8985 -21.9899
-13.9366 -1.1458 12.2351 22.4868 26.4626 26.5643
21.1127 12.1361 4.2340 -1.3409 -0.6734 10.7069
29.5795 47.5999 62.4360 70.9607 71.8429 66.4687
58.2138 48.2673 37.7243 31.6342 24.6982 15.7049
5.8555 -3.7316 -11.4703 -19.6179 -26.3083 -35.3904
-46.7642 -54.1080 -56.2457 -57.7207 -58.0773 -55.9442
-56.0534 -55.5736 -52.8805 -52.0562 -53.6469 -54.6046
-52.5089 -46.2535 -36.0083 -20.8893 -4.1292 9.1274
20.1213 28.0672 31.5259 31.5875 31.0993 30.2059
28.1849 26.7575 25.5767 25.5823 26.6427 29.3975
32.1812 32.6218 32.8589 30.4514 27.6826 27.0059
29.2463 34.4011 38.4291 42.0894 40.7405 34.3656
24.5815 11.9690 1.0517 -9.4353 -17.6165 -23.9970
-27.0841 -26.2869 -25.2936 -22.7013 -24.0698 -30.3046
-36.0569 -42.6035 -49.3873 -55.4411 -61.1261 -68.0863
-73.1496 -68.5642 -54.3078 -37.4637 -23.4863 -11.7914
-4.6053 -2.7225 -3.7008 -5.8786 -6.0037 -3.4879
1.9721 9.1732 16.5516 24.2950 31.5053 36.7339
36.8767 32.4323 26.6082 18.9497 11.4257 6.2905
-0.5493 -10.9905 -20.1892 -26.9646 -33.8193 -38.6044
-40.9111 -42.9452 -43.1254 -38.2114 -30.0367 -21.8723
-12.2619 -3.0016 3.1810 5.7481 7.0158 9.1143
9.8453 9.9797 9.3356 7.2791 6.0506 5.7332
4.1313 3.4807 4.5271 4.0193 2.9374 2.3838
3.9679 6.4417 11.2026 18.0825 24.7832 31.3046
33.7812 34.6820 36.2288 37.6356 38.4973 38.2163
34.4785 29.7653 32.9513 48.9777 63.9492 67.7999
67.2939 53.6704 33.3182 25.0436 29.2052 35.1469
36.5854 40.1159 42.7148 42.0278 40.5808 38.0725
33.5954 19.6106 3.1465 -7.1837 -13.6921 -16.1369
-16.8333 -17.1591 -18.3932 -19.8700 -24.5804 -32.9446
-39.1459 -43.8647 -45.7737 -41.9268 -31.5696 -19.4163
-7.2042 2.3576 4.7586 4.8716 2.0907 0.2965
0.6736 -0.6557 -1.0207 -2.7225 -6.2894 -9.7648
-11.8951 -12.9032 -12.7483 -12.2246 -11.3555 -10.0047
-10.7786 -12.0836 -13.3653 -13.8153 -13.3131 -11.6972
-7.3004 -3.5654 0.9098 7.4630 12.1034 14.1683
13.2348 11.7263 8.7297 3.4956 2.7208 5.0853
9.4383 15.6246 19.9476 21.9733 22.0405 22.9880
23.7862 25.1678 29.3079 34.8370 42.3274 48.5128
53.2139 56.3635 54.5516 49.9999 41.4219 30.2264
23.5724 20.2071 17.3394 14.8218 12.8567 10.0450
7.0952 4.5112 -0.5166 -5.7648 -12.7268 -20.2919
-23.9942 -25.4187 -26.7107 -30.0125 -32.5273 -35.0198
-40.0495 -46.0183 -53.2025 -58.3424 -60.8078 -61.7198
-60.9198 -59.1303 -54.9445 -48.7609 -42.4617 -37.5916
-32.9315 -29.6400 -27.4986 -23.0243 -19.3631 -14.5444
-8.0518 -0.4139 10.6910 20.1446 27.6770 35.1338
41.8579 45.2875 45.4444 44.9160 43.7314 42.9818
43.4952 46.3303 51.8622 57.3615 61.5790 66.1840
67.3341 67.8811 67.3443 61.7713 58.7645 58.7188
61.7676 66.2456 67.2388 65.0955 60.7669 51.0136
39.6595 30.7613 20.5777 15.2960 11.8915 9.2572
9.8854 8.3806 6.3586 2.9896 -0.6296 -4.2385
-7.7942 -9.4222 -11.4750 -13.8974 -16.3385 -18.5052
-18.5724 -16.4002 -14.0057 -11.5226 -12.4505 -17.9096
-21.9872 -28.4134 -33.1687 -30.2459 -27.0159 -24.6841
-24.0278 -22.4633 -23.3305 -27.0785 -30.5035 -36.7673
-38.5260 -39.7162 -39.0815 -34.0499 -30.0452 -22.7685
-16.4982 -13.6239 -10.6498 -10.1942 -13.5857 -18.1057
-24.2649 -30.1712 -35.6760 -39.4623 -41.4050 -44.6162
-42.9844 -39.5725 -36.7458 -30.0778 -23.7646 -18.9757
-13.7173 -13.1852 -14.4221 -13.7359 -14.1542 -12.8220
-11.3172 -9.4045 -4.0705 2.4781 8.6588 14.2757
20.2687 28.0205 34.9154 41.8140 47.6605 49.5695
49.8047 50.0241 49.2698 45.8383 43.5148 40.2662
33.7158 27.0432 22.1432 17.1368 12.1725 8.2163
1.9749 -3.9538 -11.8045 -22.1263 -33.4907 -46.4888
-53.5115 -59.0388 -65.4370 -59.7987 -46.5952 -38.1396
-33.7866 -32.7589 -33.6756 -32.8765 -30.1665 -26.4699
-23.4668 -21.8994 -22.5183 -26.4848 -30.9525 -35.3960
-40.0579 -42.3207 -44.5089 -45.7859 -44.9821 -43.5025
-40.1317 -35.7405 -30.7154 -25.1742 -19.4313 -15.4461
-11.9474 -7.4712 -3.0838 2.2008 7.6991 14.8227
23.5024 31.2290 37.9810 43.7808 45.6600 44.1122
40.3689 33.7588 27.2299 21.7045 18.9702 20.1072
24.7234 31.3214 37.0354 40.7843 40.3978 35.3429
28.3361 21.2909 15.5396 12.8875 13.4570 15.6647
18.6006 22.5819 23.9486 22.5698 21.0295 20.2361
21.5626 23.1150 21.3348 14.1347 6.8468 2.9411
1.4269 1.5819 2.6461 3.5226 3.1978 3.1082
2.2848 3.8316 4.0575 -2.0774 -4.6875 -6.0458
-12.3618 -16.5393 -15.0877 -10.5406 -6.6918 -5.9440
-8.0052 -11.9016 -16.5971 -21.6595 -24.4068 -23.9671
-20.9706 -15.6627 -12.6382 -10.6815 -10.8188 -13.8564
-15.3248 -18.0954 -19.0644 -19.1316 -17.9330 -10.9728
-4.7958 0.8705 5.3206 7.2641 5.1479 -1.1561
-4.5475 -6.4985 -7.0045 -5.0199 -2.5041 0.2414
2.1765 3.4984 3.8923 3.6655 2.6890 0.1013
-2.8121 -5.3718 -5.9608 -4.2460 -0.6492 5.3691
9.6567 10.5398 8.3936 3.8297 -0.2739 -4.2880
-6.4911 -5.3718 -2.9083 0.6754 3.3854 5.0918
8.2331 10.3101 10.5267 10.5370 8.6037 6.5481
7.3462 12.1472 21.1341 29.8791 36.6171 40.3138
40.1523 36.8206 29.7932 22.4680 15.9158 9.6389
5.1609 1.7350 -1.4875 -4.0378 -4.6745 -4.0453
-4.7557 -5.2271 -4.3795 -3.2294 -0.0490 4.1621
7.8279 10.2756 10.4212 8.3544 4.4851 -1.5230
-8.4402 -14.1644 -18.8954 -21.7081 -23.5891 -24.2220
-22.6584 -20.1883 -16.2910 -12.3637 -9.7294 -9.1478
-8.5457 -7.0045 -5.8264 -3.3489 -0.9843 0.6502
2.0850 2.6265 3.7793 4.5635 4.3049 4.4300
4.4029 4.7156 6.6573 9.9955 13.1610 16.1417
17.8061 16.4059 14.2122 11.5377 7.8121 5.5857
3.3163 0.0201 -2.4275 -5.5641 -7.4432 -7.5291
-7.0605 -6.1289 -6.3286 -6.8299 -7.5114 -7.5030
-7.4152 -7.1697 -5.3951 -3.6177 -1.6863 0.5634
2.5322 4.0482 5.0358 4.3833 2.1606 -1.4212
-6.7142 -12.3731 -17.9694 -22.8423 -26.2141 -27.9224
-28.2529 -25.7417 -19.3389 -12.4589 -7.3181 -4.2777
-4.0985 -6.8355 -11.4862 -17.0452 -21.3879 -22.8871
-22.6836 -20.9482 -18.9683 -17.0910 -15.3341 -15.6721
-17.0714 -18.4511 -19.1027 -19.1988 -19.2894 -18.6565
-17.8172 -16.3096 -13.7939 -10.9205 -7.3938 -3.2612
0.3580 2.8159 4.5971 6.5630 8.8548 10.6499
11.8607 12.6327 13.1003 13.4560 13.0313 12.0361
10.8319 8.9257 6.9486 5.0694 3.2724 2.7618
3.4694 4.7044 5.8424 6.1177 5.4214 3.8503
1.1786 -1.9785 -4.8070 -6.9476 -7.2640 -5.8610
-3.1939 -0.0536 2.1233 2.9392 2.2278 0.5111
-2.1671 -5.0133 -6.8187 -7.3686 -6.7963 -6.1961
-5.7060 -5.6229 -5.6472 -5.0273 -4.3832 -3.6542
-3.0250 -2.9158 -2.7701 -2.6796 -2.6730 -1.2037
1.4241 4.8034 9.1488 13.0359 16.2033 17.5662
16.3527 12.9164 8.4496 5.8741 3.9651 1.4670
-0.2562 -2.1764 -3.9529 -4.0490 -2.9634 -1.4959
-0.1610 0.4532 -0.2254 -2.5862 -6.2661 -10.4678
-14.5211 -17.8117 -20.0138 -21.0462 -21.3571 -22.1459
-24.3574 -28.6328 -34.9405 -42.1341 -48.3568 -52.2168
-52.7722 -49.2996 -43.2356 -35.8628 -27.7712 -20.3228
-13.9544 -9.7154 -8.4253 -9.8022 -13.3850 -17.1610
-18.7265 -17.1871 -12.7147 -5.9982 1.6379 8.7521
13.9470 16.4731 16.9118 16.2836 15.2773 14.5809
14.9356 16.8950 20.6402 25.5561 30.3038 33.7746
35.3998 35.0087 34.3207 34.8080 36.3221 39.0629
41.6664 42.5617 41.7999 39.4008 35.5212 30.3683
24.3966 18.4717 13.2917 9.5241 7.3686 6.0337
4.8444 3.6533 2.4323 1.4773 0.8164 -0.0443
-1.3531 -2.6367 -3.1370 -2.9335 -2.3846 -1.9263
-2.3221 -3.4721 -4.6848 -5.0927 -4.1153 -2.0887
0.0985 1.4857 1.5632 0.4094 -1.2075 -2.3678
-2.7963 -2.5666 -1.6695 0.0257 2.4575 5.0825
7.5469 9.5829 10.7582 11.0336 10.8441 10.3558
8.9798 6.8057 4.2554 2.1391 1.5408 2.6311
5.1067 7.9035 9.9180 9.9180 7.8335 3.6430
-2.6376 -8.8977 -14.6695 -18.7974 -19.1083 -18.7713
-19.3183 -18.5902 -20.1828 -23.5667 -23.7637 -21.7053
-19.8243 -19.6684 -20.6206 -21.9424 -22.7266 -21.8173
-20.0726 -18.9216 -19.6413 -21.2330 -21.3282 -18.8525
-13.8602 -7.5618 -1.4660 3.5767 6.6928 8.4393
10.1645 12.2443 14.9617 17.3468 18.4941 18.8348
18.6761 18.7956 19.7450 21.1929 22.4979 23.3240
23.6685 23.0431 20.7774 17.3590 13.7444 10.0030
7.2809 6.5005 7.1567 8.9882 11.4181 13.2291
14.2084 14.6014 13.8901 12.7615 11.6450 10.5873
9.6594 8.7829 7.3845 4.7399 1.6939 -1.6425
-4.4075 -6.1858 -7.6066 -8.2507 -7.5572 -5.8031
-3.2136 0.6605 4.6671 8.4515 11.5040 13.7295
14.2961 14.0077 13.0667 9.4550 6.4230 2.9121
-0.0406 -1.2084 -3.3424 -4.8556 -7.1436 -9.8629
-12.5813 -15.5367 -16.4254 -15.8616 -13.4877 -9.5511
-5.9459 -2.4985 0.2675 1.9674 2.7711 2.4985
1.6864 1.1421 1.8087 3.8362 6.7133 9.7294
11.8382 12.1621 10.4688 7.3686 3.7896 0.5643
-1.3578 -2.5844 -4.3618 -6.1373 -8.5803 -11.3602
-12.9425 -13.5204 -13.0723 -12.1155 -11.1343 -10.3269
-10.4053 -12.1500 -15.2978 -19.6236 -24.3070 -28.0877
-30.9209 -32.6693 -33.9995 -34.7109 -34.3384 -33.1342
-31.4072 -29.1761 -26.3131 -22.4932 -17.5186 -11.6384
-5.4306 -0.3487 4.7940 9.0806 11.4461 13.7687
15.6973 17.1246 18.2990 18.8656 18.9160 19.8934
21.7184 22.9208 22.9618 23.2344 24.8391 25.3413
24.8531 25.4561 25.8828 25.8912 25.6690 23.7460
20.4236 16.2621 11.9857 8.0883 4.0444 -0.5839
-5.8414 -12.0109 -18.5230 -23.2447 -25.5486 -25.6055
-23.9980 -21.2526 -18.2607 -15.5181 -13.4354 -12.4805
-11.7271 -12.8884 -15.6740 -18.3615 -22.0890 -25.0454
-24.2706 -20.2705 -13.9414 -5.4923 2.4518 8.4981
12.2984 12.8791 12.0016 9.9927 7.6197 6.9065
7.5842 10.4090 14.4772 18.2700 21.2526 22.4008
21.2358 18.1505 15.1540 13.0658 12.7493 14.4427
16.7484 19.7524 22.8507 24.5422 24.7588 23.4528
20.3144 17.1349 14.9197 14.0198 15.8485 19.2736
22.6622 25.2629 26.2673 25.4449 23.3306 20.7419
17.0518 12.6494 8.4337 4.2927 1.1580 -1.0413
-3.3489 -5.4755 -7.5133 -10.5817 -14.4175 -18.5548
-22.9600 -27.1934 -30.9069 -33.6635 -35.4437 -36.2026
-36.4005 -36.5004 -36.4463 -36.4687 -36.3893 -36.0402
-35.4194 -33.8670 -31.3083 -28.2212 -24.1819 -18.9347
-12.7166 -5.9366 0.5428 5.6351 9.0172 11.1493
12.8016 14.9486 17.7127 20.0063 21.7044 23.1354
24.5096 27.3278 32.0308 37.7055 43.0097 46.4870
47.4597 46.5057 44.2046 41.3891 39.5978 38.9602
39.2402 39.6510 39.2692 38.1452 36.1214 33.5104
31.0105 29.0464 27.5742 26.3280 24.9595 22.5268
18.9571 14.8067 10.6965 7.7187 5.9189 5.1282
5.1403 5.2589 5.3858 5.5259 5.6948 5.5119
4.5933 2.8775 0.0929 -3.4619 -7.2333 -10.2550
-11.9036 -12.2060 -11.2062 -10.1178 -9.9619 -10.5005
-11.9204 -14.0581 -16.1753 -18.1151 -19.0906 -19.6880
-21.2106 -22.9982 -24.6571 -25.6354 -25.6036 -24.6683
-22.0554 -17.8332 -12.0949 -4.9957 0.9778 4.3216
4.8920 2.4864 -0.8257 -2.6516 -1.9916 1.0852
6.2166 12.2769 18.1160 23.6339 28.1231 31.2112
32.0803 31.3344 29.8426 27.8674 26.7910 25.2293
23.6591 21.3795 16.9557 13.3243 10.1784 8.0948
7.4899 7.4526 8.8659 9.8648 10.1373 10.6909
10.0739 7.6636 4.8696 1.0917 -2.2988 -3.7821
-4.7436 -3.3863 -0.9078 2.0411 4.5326 3.9641
1.9972 -1.1870 -5.2673 -9.9862 -14.2271 -16.7344
-17.4570 -15.7151 -12.9146 -9.9264 -6.8944 -3.9361
-1.8740 -0.8948 0.2394 1.4362 2.7123 3.4852
3.6868 4.1732 4.8070 6.1961 9.0797 13.0517
16.4170 18.4455 19.0411 18.2177 17.2525 16.1594
15.4854 15.0970 14.3736 13.9012 13.8228 14.0338
14.6200 16.2415 18.2028 20.2808 21.6698 21.5429
20.6056 18.9020 17.5428 16.7083 16.5981 17.8406
18.9123 19.5620 18.8040 14.2765 7.9445 1.1907
-5.2944 -8.4972 -9.7761 -9.8695 -7.9642 -6.2746
-5.1824 -3.6001 -0.8929 2.5284 6.6152 10.1392
10.0319 7.7037 5.9216 5.3886 5.4045 4.2749
3.1473 2.3053 -0.1564 -5.2234 -12.8511 -20.5011
-26.9899 -33.5860 -39.6837 -43.8088 -45.9587 -45.4807
-42.4832 -38.6092 -34.5718 -31.9543 -31.5454 -33.6831
-38.6466 -45.0569 -52.1123 -56.9768 -58.5628 -57.9112
-54.4563 -50.2154 -45.5582 -41.9782 -40.7311 -39.5278
-39.0713 -38.4711 -35.9842 -32.7179 -28.1297 -21.0818
-13.0527 -5.3373 1.5818 7.1800 11.0428 13.6165
15.3341 16.2929 17.0182 18.8357 21.2609 23.3352
27.5584 31.0805 33.1771 35.1664 34.4168 32.9297
30.5045 26.7863 23.3137 20.4693 18.8544 18.8516
20.5440 22.4988 23.5826 24.5338 24.8428 22.6575
20.7242 18.7834 15.6879 14.1225 13.8424 14.6265
15.3976 15.6142 14.7619 12.5990 10.6732 8.2769
5.9515 4.8490 4.3720 4.1825 3.9594 3.1958
1.4660 -0.8920 -3.8885 -7.5115 -10.6462 -13.7043
-17.4906 -21.8930 -26.2795 -29.2042 -30.8406 -31.1487
-30.0891 -28.5722 -26.6875 -25.0333 -24.1642 -25.2527
-28.1736 -32.8336 -36.4902 -35.3597 -35.1058 -36.7441
-35.8208 -33.5142 -31.4866 -30.8686 -30.3571 -29.1827
-27.4511 -25.1696 -23.4267 -22.5147 -22.2935 -20.5814
-17.1256 -13.1265 -8.4683 -3.4479 1.8730 7.1361
12.1938 16.4506 19.5629 22.2775 23.9401 24.0222
24.3116 24.5655 23.9728 23.8486 23.3576 21.9835
20.9445 20.5169 20.2490 20.3946 21.3104 22.6509
23.4883 22.9655 21.1499 17.3766 11.5357 4.8173
-1.1366 -5.4699 -8.2667 -9.3990 -9.7817 -10.1411
-10.9552 -12.7876 -15.0840 -17.7884 -20.5842 -22.9339
-24.8261 -25.8174 -25.5038 -23.9756 -21.4757 -17.9350
-14.0675 -10.7927 -9.4569 -10.0767 -12.1846 -15.1615
-17.6073 -19.4034 -19.5742 -19.4612 -19.3585 -17.9023
-16.9174 -17.2880 -17.2068 -16.9604 -18.0292 -18.0993
-17.3356 -17.1489 -17.2180 -16.9314 -15.4994 -13.5886
-10.5043 -5.9488 -1.4129 2.0719 4.7575 6.1429
5.5184 4.1732 4.1312 6.2680 9.1254 11.7355
12.7017 11.9707 11.2949 9.8255 8.4355 8.1088
7.9641 8.7651 9.4801 9.5866 10.2979 10.5789
10.5723 10.5117 10.1439 9.9105 9.7779 10.0888
10.7637 11.6673 12.3749 12.4991 12.2116 11.4601
10.4034 8.9984 7.3116 5.7088 3.1753 -0.0995
-3.1511 -6.4435 -9.2973 -11.4817 -12.8128 -13.2656
-13.9022 -13.6997 -12.5953 -11.7216 -11.1913 -11.8233
-13.1508 -15.1289 -17.6372 -19.3614 -20.3210 -20.1530
-18.8134 -16.2659 -13.8276 -13.0229 -13.4700 -15.0299
-16.7494 -18.0946 -18.7658 -18.3345 -16.8922 -14.4763
-12.2070 -11.0028 -10.7097 -11.8653 -13.7594 -14.3316
-12.6691 -8.8511 -4.1154 0.3019 3.3003 4.7090
4.6381 2.6824 -0.3198 -3.5796 -6.7740 -9.8975
-12.7774 -14.5865 -14.2756 -13.2180 -12.9305 -12.6215
-12.5337 -12.3312 -12.4936 -13.4103 -14.4297 -15.3118
-15.2885 -14.9702 -13.7034 -10.8319 -7.7962 -4.9490
-3.1539 -2.9952 -3.3210 -4.1583 -5.1012 -5.2533
-4.8753 -4.0510 -3.0596 -2.1140 -1.0993 0.2571
1.9337 3.5328 4.5942 5.2122 5.9393 7.0857
8.8892 10.9672 12.8594 13.9553 14.0580 13.4298
12.2741 11.3639 10.6507 9.8423 8.8229 7.8353
7.4189 7.0315 6.5387 5.9590 5.1897 4.5932
4.0369 3.4338 2.5871 1.6294 0.9152 0.1208
-0.6820 -1.1683 -1.2738 -0.9060 0.3467 2.5750
5.6920 9.4148 12.8239 15.4284 16.5141 15.6730
13.6043 10.9093 8.4691 7.3331 7.6355 8.9228
10.8038 12.7455 14.6060 16.6195 18.4305 19.7216
20.6476 21.2198 21.3543 21.2889 21.1069 20.7027
20.2341 19.7841 19.2987 19.0560 19.1428 19.3183
19.4144 19.0849 18.1906 16.6083 14.5350 12.5663
10.9849 10.0430 9.0442 7.5926 6.5956 6.2577
6.5162 7.2276 8.0201 8.4747 8.5886 8.1807
6.4406 4.3291 2.2875 0.1022 -1.6164 -3.4918
-5.6408 -7.6160 -9.4364 -11.3351 -13.2843 -14.9776
-16.3695 -17.1014 -17.3385 -17.9303 -19.0757 -20.5451
-22.2347 -23.6275 -24.9157 -26.1741 -26.8602 -26.7603
-25.6914 -23.8702 -21.4328 -18.9926 -16.7578 -14.4614
-12.2462 -10.1626 -7.9372 -5.3756 -2.8776 -0.0528
2.2651 3.3713 5.0030 6.7814 8.8173 11.7905
14.2363 16.3619 17.9432 18.6032 19.2464 20.5944
22.6696 24.2033 25.0603 25.3310 24.9585 24.5739
24.5366 25.0621 26.0376 27.2288 28.2164 28.4974
27.8962 26.6388 24.9697 23.2045 21.3459 19.2268
17.0863 14.5210 11.4927 8.2610 4.8490 2.0364
0.2207 -0.7016 -0.8631 -0.8202 -1.0946 -1.7639
-3.0839 -4.9593 -6.4958 -7.4574 -7.6945 -7.0924
-6.0823 -4.9378 -4.1817 -4.0286 -4.4982 -5.5679
-6.9449 -8.5206 -9.9013 -10.5967 -10.3353 -9.0676
-7.3771 -5.9320 -5.1973 -5.1983 -5.4270 -5.7294
-6.1056 -6.3717 -6.0851 -4.8622 -3.0018 -1.0087
0.8639 2.5713 4.0882 5.6126 7.2724 8.7930
9.9263 10.5835 10.7282 10.4808 10.3903 10.9009
11.9007 12.8332 13.4904 14.1327 15.0167 16.2116
17.0396 17.2114 16.3012 14.4837 12.9219 11.4722
10.7711 10.7973 10.7245 11.1613 11.1119 10.0607
8.8033 7.1575 5.6835 4.7454 4.6352 4.9171
4.8079 5.0637 5.1552 4.8957 4.0331 1.9859
-0.2283 -2.3110 -3.3509 -2.7124 -1.1301 0.6566
1.6480 1.9477 1.8954 1.0319 -0.1574 -1.0442
-1.5147 -1.0629 0.2310 2.2781 4.9181 7.4012
9.4101 10.6871 11.4311 12.1256 12.9611 13.6893
14.1327 13.9068 12.7427 11.5254 10.4173 9.3401
8.8313 9.2505 10.6059 12.3684 13.9768 15.1016
15.5600 15.0727 13.4269 11.1203 8.8761 7.0987
5.9076 5.1570 4.8294 4.9218 5.4278 6.1419
6.7141 7.5207 8.2619 8.4000 8.2852 7.5151
6.1587 4.9815 4.2571 4.1433 4.5223 5.0581
5.1710 4.3906 2.9092 1.0356 -0.9929 -2.4995
-3.1044 -2.9383 -2.1971 -1.3317 -0.9565 -1.5614
-3.3434 -6.2457 -9.6016 -12.6215 -14.7751 -15.6825
-15.4089 -14.0815 -12.2014 -10.4222 -9.0901 -8.1622
-7.2847 -5.9656 -3.8839 -1.4223 1.0478 2.8168
3.5785 3.5701 2.8168 1.9206 1.0916 0.7911
1.3175 2.1866 3.2695 3.9958 4.3076 4.5783
4.9022 5.4800 6.3678 7.1603 7.1183 6.3034
4.8770 3.0399 1.0683 -0.8753 -2.7171 -4.7913
-6.8590 -8.6075 -9.9414 -10.9356 -11.7169 -12.5748
-14.1991 -16.4983 -19.0356 -21.1603 -22.0947 -21.9668
-21.0361 -19.7087 -18.4438 -17.1817 -16.0736 -15.1130
-14.2757 -13.5681 -12.7597 -11.7160 -10.3839 -9.2861
-8.6168 -8.1594 -7.7365 -6.8973 -5.5997 -4.1238
-3.0933 -2.5238 -2.2270 -2.4025 -2.7376 -3.4788
-4.5365 -5.5614 -6.4931 -7.0588 -7.4574 -7.8476
-8.4488 -9.0630 -9.4868 -10.0152 -10.5258 -11.1382
-12.1576 -13.4066 -14.5044 -15.2082 -15.4762 -15.2241
-14.2038 -12.6066 -10.8684 -9.3076 -8.2891 -7.9857
-8.3834 -9.2926 -10.4670 -11.7758 -12.7429 -12.5972
-11.6329 -10.7358 -9.9937 -9.4803 -9.4364 -9.6941
-9.8938 -9.4887 -8.3087 -6.5752 -4.7596 -3.5581
-3.1119 -3.0326 -2.5406 -1.2487 0.5978 2.4788
3.5225 3.4833 2.7029 1.5425 0.5857 0.1068
-0.0594 0.0862 0.3784 0.5110 0.6800 0.8069
0.7957 1.1318 1.6163 2.0830 2.3267 1.6611
0.7985 0.2076 0.1180 1.1402 2.4919 3.8352
5.0674 5.4959 5.1561 4.8994 5.2270 5.9580
7.1155 8.4458 9.4511 9.9412 10.4948 11.1333
11.6505 12.3954 12.4561 11.9632 11.7429 11.7896
12.3711 13.0843 13.8778 14.6909 15.2417 15.6944
15.7261 15.3649 14.5919 13.4820 12.2507 10.6012
8.9928 7.8997 7.1594 6.5806 5.7918 4.7323
3.6504 2.6179 1.9476 1.8151 1.9719 2.1978
2.2361 2.0550 1.7301 1.4426 1.1924 0.7705
0.2179 -0.3702 -0.7287 -0.8977 -1.0918 -1.4727
-2.0786 -2.6919 -3.0895 -2.9990 -2.4977 -1.8340
-1.1628 -0.6279 -0.2909 -0.2797 -0.6204 -1.0760
-1.3551 -1.4130 -1.2487 -0.9761 -0.8902 -0.8090
-0.5159 -0.0641 0.4410 0.8190 1.0347 1.0487
1.0982 1.4295 1.8440 2.0961 1.8375 0.8610
-0.6279 -2.3567 -4.0202 -5.1572 -5.6427 -5.5811
-5.1544 -4.7773 -4.5934 -4.6121 -4.8100 -5.2077
-5.8396 -6.5967 -7.5293 -8.6327 -9.6773 -10.5426
-11.1214 -11.3184 -11.1242 -10.6248 -10.1944 -10.1141
-10.3363 -10.6434 -10.8609 -10.9366 -10.8357 -10.5249
-10.0367 -9.4570 -8.8866 -8.4544 -8.1258 -7.6581
-6.8310 -5.6184 -4.1705 -2.7516 -1.7201 -1.1572
-0.7586 -0.4496 -0.0771 0.1618 -0.0855 -0.5952
-1.2403 -1.5801 -1.2944 -0.5196 0.4270 0.9936
0.9012 0.1040 -1.2477 -2.9318 -4.6896 -6.2915
-7.7197 -8.9211 -9.8434 -10.5436 -10.8572 -10.8236
-10.8236 -10.8535 -11.0187 -11.3193 -11.6955 -12.0754
-11.7431 -10.7032 -9.3253 -8.2462 -8.1538 -8.8082
-9.8976 -10.6668 -10.7433 -10.1552 -8.9389 -7.7767
-6.8693 -6.2859 -6.1337 -6.3101 -6.7881 -7.2324
-7.5031 -7.5722 -7.2670 -6.6359 -5.7435 -4.8940
-4.4497 -4.5514 -5.2357 -6.2345 -7.1680 -7.7487
-7.9008 -7.6637 -7.1447 -6.5874 -6.2924 -6.4772
-7.0700 -7.6740 -7.8924 -7.4229 -6.2765 -4.7913
-3.2053 -2.0366 -1.6968 -2.2027 -3.3612 -4.5561
-5.0163 -4.2163 -2.2214 0.5240 3.2891 5.2420
5.9570 5.3605 3.7745 1.7703 -0.2228 -1.7248
-2.3409 -1.9525 -0.6764 1.1093 2.9726 4.4643
5.2093 5.1271 4.3981 3.3171 2.2538 1.5416
1.3810 1.8011 2.8373 4.3747 5.8749 6.9083
7.0221 5.9533 3.9789 1.5938 -0.5094 -1.6846
-1.4662 -0.0155 2.1427 4.4793 6.3706 7.6345
8.3057 8.5167 8.4355 8.2161 7.9556 7.6775
7.3601 6.9745 6.8121 6.6301 6.5461 6.9111
7.3815 8.0975 8.7855 9.1701 9.3764 9.2373
8.8695 8.5092 8.5652 9.1739 9.9599 10.5993
10.8420 10.6581 10.1167 9.0684 7.6364 6.2352
5.2476 4.9656 5.3166 5.9701 6.5881 7.0109
7.0408 6.4714 5.3120 3.7446 2.0391 0.5623
-0.3628 -0.6400 -0.3460 0.4176 1.6508 3.0660
4.1927 4.6389 4.1638 2.9409 1.4538 0.2935
-0.2900 -0.3348 -0.0463 0.2626 0.4633 0.5240
0.3709 -0.2704 -1.0872 -1.9796 -2.6648 -2.2382
-1.3206 0.5222 3.2116 5.2541 7.1211 7.8968
7.0436 5.5883 3.6634 1.9542 0.5492 -0.5355
-0.9920 -0.4450 0.7957 2.1390 4.0583 5.6863
6.5376 6.3696 5.4893 4.8555 4.3019 4.4802
5.3512 7.0473 8.5428 9.0432 10.2156 11.2957
11.6794 11.2248 10.1942 9.2224 7.6933 6.5190
5.4482 4.6669 4.7677 4.3813 3.7829 3.1584
1.9784 0.1665 -1.6930 -3.0896 -4.0604 -4.0240
-4.1734 -4.8922 -5.2338 -5.7435 -5.6464 -4.7652
-3.8392 -3.0205 -2.3876 -2.0310 -2.6518 -3.3902
-3.7869 -4.3554 -4.6448 -4.6336 -4.2704 -3.9372
-4.2219 -4.9146 -5.6278 -6.1132 -6.5174 -6.9617
-7.4584 -7.8327 -7.9606 -7.8495 -7.2605 -6.3914
-5.0975 -3.4098 -1.8433 -0.2041 1.2830 2.6533
4.3308 6.2679 8.4728 10.6889 12.5270 13.7461
14.1541 13.9702 13.9254 14.3940 15.3686 16.7744
18.1765 19.0839 18.9317 17.6360 15.5086 12.7062
9.9692 7.7166 6.0130 5.0384 4.5045 4.0209
3.5616 3.1556 2.4461 1.3380 -0.2125 -2.1243
-3.9736 -5.7697 -7.2791 -8.0754 -8.1193 -7.6777
-7.1130 -6.2635 -5.2030 -4.3358 -3.5890 -3.1484
-3.1101 -3.2212 -3.4555 -3.6310 -3.4592 -2.8478
-1.7789 -0.0856 1.7497 3.7287 5.6321 6.6795
7.7829 8.4354 8.3150 8.6175 9.1300 9.4894
9.8114 10.3090 10.5592 10.7263 10.9652 10.8541
10.5900 10.3305 10.7599 10.7981 9.8432 9.3279
8.5120 7.2471 6.1101 4.9283 4.1395 3.6867
2.8876 1.3128 -0.8473 -3.4760 -5.1582 -5.1601
-4.7120 -3.6431 -2.6611 -2.4567 -2.5173 -3.0382
-4.1584 -5.3244 -5.8630 -5.8033 -5.0695 -4.3162
-3.4191 -2.1355 -1.1591 -0.0100 0.7611 0.8853
0.8087 0.8293 1.3968 1.9691 2.6907 3.3992
3.6242 3.5644 3.2396 3.1742 3.4412 3.7782
3.9985 3.6652 2.9175 2.2444 1.8552 1.7450
2.1894 3.1929 4.2188 4.9656 5.1150 4.4074
3.1135 1.4892 -0.1537 -1.4933 -2.2998 -2.3045
-1.8770 -1.3113 -0.6289 0.1170 0.7732 0.9291
0.3765 -0.6447 -1.8639 -3.3500 -4.4870 -4.9146
-4.7297 -4.1949 -4.1127 -4.6233 -5.6072 -6.8647
-7.9382 -8.7102 -9.4206 -9.8827 -9.9396 -9.4402
-8.4722 -7.4668 -6.7424 -7.0112 -7.5891 -8.1333
-8.8493 -9.2451 -9.5765 -9.6204 -9.3235 -8.6943
-7.5807 -5.9657 -3.9251 -2.2858 -1.1460 -0.6681
-1.0816 -1.7285 -2.5640 -3.6562 -4.5076 -5.1480
-5.9088 -6.4885 -6.7545 -6.8507 -6.7349 -6.6360
-6.7228 -6.6444 -6.2579 -5.7482 -5.1601 -4.6719
-4.2275 -3.7710 -3.3855 -2.8431 -2.1748 -1.5680
-0.9995 -0.5934 -0.4235 -0.2527 0.1525 0.8909
1.9102 2.8832 2.8832 3.4871 3.7074 3.8447
4.0724 4.3674 4.5047 4.1677 3.2500 2.0477
1.0152 0.3879 0.5279 1.3065 2.3856 3.5021
4.2778 4.6456 4.7679 4.9714 5.3327 5.9413
6.5929 6.8449 6.5621 5.7247 4.4421 2.9578
1.7097 1.0124 1.2122 1.9861 2.7627 3.4881
3.7634 3.2780 1.9282 -0.1414 -2.5181 -4.6558
-6.0458 -6.7095 -6.9672 -6.9793 -6.9718 -6.8803
-6.4687 -6.1419 -5.7424 -5.3942 -5.4194 -5.6098
-6.2521 -7.0064 -7.5823 -7.8008 -7.6524 -7.6356
-7.7056 -8.1032 -8.8295 -9.5679 -10.3380 -10.7927
-10.7469 -10.4146 -9.9114 -9.4139 -9.1749 -9.2234
-9.3868 -9.8881 -10.2512 -10.0104 -9.7061 -8.9471
-7.8615 -6.6993 -5.0451 -3.4003 -2.0131 -1.0590
-0.6660 -0.4289 -0.2618 -0.2319 -0.1153 0.3375
1.1422 2.1186 2.8103 2.9448 2.9224 2.8701
2.3548 1.4736 0.5914 -0.1218 -0.3972 0.0285
1.1039 2.6152 4.2451 5.4942 6.3287 6.8972
7.0727 7.1380 7.3640 7.7112 8.3507 9.1703
10.1234 11.1306 11.7346 11.7663 11.0662 9.5698
7.6188 5.7070 4.3553 3.6776 3.4516 3.3602
3.1371 2.5303 1.2103 -0.5979 -2.5685 -4.5989
-6.4715 -8.1350 -9.3467 -9.7733 -10.2494 -10.7731
-11.2893 -12.7437 -14.1038 -15.3790 -16.5337 -16.5514
-16.3330 -16.0455 -15.6413 -15.4406 -15.2781 -14.8926
-14.3232 -13.9880 -13.8378 -14.0291 -14.3969 -14.3661
-13.8163 -12.7782 -11.4704 -10.0272 -8.5252 -6.8804
-5.0507 -3.2304 -1.4576 -0.0938 0.6185 0.9368
1.0871 1.4306 2.2717 3.7457 5.6668 7.4685
8.6858 9.0657 8.5019 7.3303 6.2661 5.5175
5.2589 5.5511 6.1467 7.0503 7.9436 8.5663
8.7633 8.4477 7.8354 6.9439 5.9964 5.3308
5.0479 5.3420 6.0561 6.8440 7.3742 7.4069
7.2370 6.9803 6.7721 6.8262 7.1838 7.6953
7.9623 8.0510 7.8634 7.4125 7.0064 6.7226
6.8626 7.4414 8.3292 9.4849 10.6368 11.5619
12.2172 12.4879 12.3152 11.7439 10.8608 9.9665
9.4176 9.5670 10.4370 11.6571 12.8445 13.5633
13.5428 12.8147 11.4807 9.9301 8.5906 7.7747
7.4816 7.3593 7.1856 6.6563 5.6668 4.4075
3.0521 1.8628 1.0507 0.6091 0.4317 0.2964
0.1312 0.0182 -0.1489 -0.3701 -0.5270 -0.5475
-0.5447 -0.4962 -0.2917 -0.0443 0.3795 0.8490
1.2476 1.6397 1.7573 1.6556 1.2467 0.6605
0.2348 0.0630 0.3823 1.1328 2.2147 3.2603
3.8988 3.9725 3.3396 2.3211 1.2486 0.3795
-0.1405 -0.4289 -0.5736 -0.6044 -0.5298 -0.3963
-0.4719 -1.0759 -2.3044 -3.9501 -5.6267 -6.8496
-7.2650 -7.0185 -6.3614 -5.5987 -5.0731 -4.9312
-5.1777 -5.7443 -6.5583 -7.3509 -7.8923 -8.1331
-8.1089 -8.0295 -7.9203 -7.6057 -7.1492 -6.3138
-5.1422 -3.9791 -2.9018 -2.4668 -2.6880 -3.4171
-4.3441 -4.7585 -4.7809 -4.3786 -3.4610 -2.4024
-1.4054 -0.7286 -0.8864 -1.8796 -3.0568 -3.7952
-3.7550 -2.6703 -0.7463 1.3270 3.0017 3.8138
3.6486 2.6367 1.1487 -0.2852 -1.4129 -2.0794
-2.2633 -1.9562 -1.2738 -0.5363 -0.0023 0.1115
-0.2843 -1.2038 -2.3370 -3.3181 -4.2050 -4.7567
-4.7940 -4.2311 -3.0773 -1.9114 -1.0301 -0.6222
-0.6278 -0.8938 -1.2915 -1.5044 -1.4792 -1.0665
-0.3954 0.3580 1.0945 1.5846 1.7750 1.7573
1.7060 1.7414 1.8488 1.8833 2.1260 2.6143
3.3760 4.5251 5.6108 6.6404 7.4003 7.6188
7.6318 7.5151 7.5105 8.0659 8.8463 9.3504
9.4830 9.1992 8.4673 7.2668 6.0019 4.7118
3.2388 1.7862 0.2702 -1.4101 -3.2183 -4.8920
-6.4314 -8.0688 -9.8965 -11.8494 -13.6464 -14.8992
-15.4247 -15.5321 -15.3062 -14.8086 -14.4604 -14.2812
-14.0404 -13.7491 -13.2600 -12.6065 -11.9652 -11.3425
-10.8721 -10.5752 -10.6424 -10.7768 -10.7171 -10.5873
-10.0917 -9.2030 -7.7430 -5.8853 -4.0370 -2.3146
-1.0918 -0.4990 -0.3879 -0.6623 -1.1394 -1.4614
-1.4222 -0.8145 0.3748 1.9617 3.6570 5.0759
5.9216 6.0887 5.8666 5.5034 5.1888 5.0133
4.9508 4.9172 4.8855 4.9956 5.1450 5.2019
4.8864 4.0425 2.8401 1.4548 0.2926 -0.6026
-1.1263 -1.1478 -0.9769 -0.9620 -1.5081 -2.4248
-3.5823 -4.8202 -5.5791 -5.8816 -5.7583 -5.2673
-4.4449 -3.0409 -1.3363 0.4504 2.0681 3.0810
3.4254 3.1043 2.3809 1.5472 1.1300 1.4231
2.3529 3.7503 5.2383 6.5023 6.9690 6.8626
6.5060 5.8619 5.1300 4.4738 4.2591 4.4467
4.7856 4.9545 4.6978 3.9557 3.1650 2.3855
2.0401 2.5405 2.0000 1.5024 1.9626 1.2102
-0.0406 -1.5921 -3.6384 -5.3261 -6.7301 -7.5759
-7.7981 -7.8345 -8.1649 -8.8594 -9.7435 -10.5052
-10.8543 -10.8077 -10.5407 -10.4081 -10.6228 -11.4098
-12.4926 -13.4756 -14.0731 -13.7893 -12.6513 -10.9150
-9.0424 -7.2585 -5.8414 -5.1628 -5.0302 -5.2281
-5.4923 -5.2776 -3.9399 -1.8255 0.9675 4.4271
7.4582 9.7639 10.8701 10.7040 9.8339 8.4589
7.5300 6.9158 7.1006 8.2227 9.3625 11.2136
13.1264 13.8265 12.8454 11.7653 9.9338 7.0082
5.4847 3.1771 1.9962 2.8252 2.2109 2.4173
2.6114 1.7433 1.3251 0.5418 0.0816 -0.3235
-0.9378 -1.3168 -1.7872 -1.8255 -1.4054 -0.6045
-0.0351 -0.0024 -0.0220 -0.3179 -0.4262 -0.3328
-0.3207 0.5166 1.6462 2.8980 4.8966 6.6899
7.8232 8.6250 9.0470 9.2234 9.2888 9.0320
8.8715 8.7287 8.1854 7.5506 6.9027 6.2586
5.7863 5.3606 4.7995 4.1078 3.2126 2.1055
0.9937 0.2207 -0.2470 -0.1303 0.6053 1.2634
2.1932 3.2882 3.7970 3.9846 3.6625 2.5890
1.8571 1.6536 1.7685 2.4312 3.0483 4.0397
5.5221 7.0969 8.5625 9.1618 9.1319 8.4094
7.2472 6.2857 5.3092 5.0198 5.2962 5.3727
5.2495 4.4513 3.2994 2.2585 1.4651 1.1075
0.9274 0.9311 1.0291 1.0889 0.9918 0.6996
0.3439 0.0060 -0.1536 -0.1462 -0.2162 -0.5952
-1.3569 -2.3520 -3.3471 -4.2442 -4.5980 -4.1817
-3.1511 -1.5894 0.1386 1.6704 2.7244 3.1752
3.2144 3.0688 3.0763 3.4786 4.2768 5.4567
6.8290 8.2404 9.5772 10.6237 11.4134 12.0099
12.3273 12.3842 12.2115 11.9035 11.5488 11.0951
10.6778 10.5126 10.7385 11.2799 11.8223 12.0556
11.8092 11.0195 9.8162 8.5802 7.5870 7.1389
7.2836 7.6131 7.9445 7.8932 7.1837 6.1316
5.0049 4.2030 4.0107 4.3244 5.0086 5.8133
6.4220 6.7459 6.7151 6.2801 5.4614 4.3393
3.2126 2.2819 1.6266 1.1766 0.6193 -0.1480
-1.0255 -1.8937 -2.4771 -2.6172 -2.3856 -1.8647
-1.3700 -1.2524 -1.3140 -1.4549 -1.7779 -2.1448
-2.3772 -2.5051 -2.5938 -2.4006 -2.3492 -2.3194
-2.0459 -2.2690 -3.0232 -3.8036 -4.3395 -4.5803
-3.9950 -2.8963 -1.4988 0.4746 2.0541 2.6665
2.4751 1.9215 1.1719 0.3663 -0.1210 -0.2405
-0.2937 -0.4673 -0.5859 -0.9088 -1.3999 -1.8890
-2.3194 -2.7068 -3.4956 -4.4562 -5.4998 -6.6630
-7.6506 -8.5552 -9.1675 -9.3879 -9.4149 -9.2982
-9.2553 -9.5904 -10.1907 -10.6938 -11.0812 -11.3090
-11.2838 -11.1615 -11.1419 -11.4528 -11.9615 -12.5823
-13.0500 -13.2385 -13.3515 -12.8633 -11.8691 -10.5342
-8.9146 -7.4667 -6.1869 -5.1768 -4.4963 -4.2760
-4.3768 -4.4683 -4.6811 -4.5822 -3.8027 -2.5229
-0.9807 0.3178 1.1140 1.1318 0.3028 -0.8753
-1.9077 -2.5285 -2.8319 -2.8459 -2.7824 -3.0363
-3.6692 -4.5953 -5.6921 -6.6882 -7.5125 -8.0922
-8.2425 -8.1594 -8.0464 -8.2051 -8.6877 -9.4187
-10.4203 -11.4154 -12.4395 -13.5700 -14.8787 -16.3966
-17.9294 -19.2270 -20.0541 -20.4872 -20.4359 -20.0242
-19.4660 -18.6594 -17.8155 -17.0556 -16.4181 -16.0045
-15.8608 -15.9765 -16.2314 -16.3807 -16.3686 -16.0895
-15.3753 -14.3326 -13.0276 -11.7795 -10.7489 -10.1925
-9.9284 -9.6352 -9.4373 -8.9473 -8.2705 -7.4845
-6.6368 -5.8471 -5.1208 -4.7353 -4.6149 -4.8464
-5.3570 -5.8938 -6.3250 -6.4688 -6.3390 -6.0357
-5.7836 -5.7752 -6.0245 -6.4035 -6.6434 -6.6499
-6.5005 -6.2345 -6.0245 -5.9909 -6.2009 -6.5864
-6.9804 -7.2959 -7.3006 -6.9206 -6.1468 -5.1031
-4.1211 -3.3257 -2.8786 -2.7516 -2.7395 -2.7171
-2.3343 -1.5567 -0.3880 1.0860 2.3939 3.5262
4.3449 4.7313 4.7229 4.4569 4.3122 4.4476
5.1290 6.1549 7.1426 7.8763 8.1900 8.0817
7.4982 6.7748 6.1885 5.9216 6.2147 7.0362
8.2628 9.6117 10.7916 11.4768 11.4703 10.9354
10.1382 9.4595 9.1365 9.2280 9.8871 11.0035
12.1975 13.0507 13.2299 12.7296 11.6495 10.2241
8.9601 8.1956 8.0621 8.4775 9.1487 9.7723
10.1261 10.2455 10.0803 9.6658 9.2262 8.7809
8.5419 8.6745 9.1477 9.9580 10.9121 11.8260
12.4906 12.7651 12.6316 12.1714 11.8372 11.9977
12.7473 13.9599 15.3891 16.7427 17.6034 17.8452
17.5306 16.8295 16.0529 15.3434 14.8328 14.5574
14.4603 14.5014 14.5378 14.4099 14.0393 13.3336
12.3300 11.3443 10.5480 10.0635 9.9356 10.0038
10.1382 10.1158 9.8544 9.4212 8.8303 8.1648
7.4469 6.8046 6.4742 6.4732 6.7916 7.2191
7.4170 7.4656 7.4693 7.3451 7.2247 7.1874
7.1267 7.1136 7.1370 7.1071 6.8737 6.2791
5.2578 3.8510 2.4116 1.0813 0.0629 -0.5952
-1.0480 -1.3028 -1.5474 -1.7061 -1.7911 -1.7425
-1.5651 -1.6193 -1.9208 -2.5453 -3.4097 -4.2079
-4.8091 -5.1283 -5.2403 -5.1582 -4.7885 -4.2098
-3.5694 -3.0065 -2.6499 -2.4912 -2.3960 -2.2317
-1.8555 -1.2524 -0.5318 0.2029 0.8872 1.5882
2.2753 2.6543 2.5619 2.0055 1.0384 -0.0967
-1.0881 -1.6604 -1.7761 -1.5437 -1.1376 -0.8249
-0.7549 -0.9892 -1.4382 -1.9964 -2.5743 -3.1064
-3.6049 -4.0865 -4.5738 -5.0583 -5.5027 -5.7174
-5.6726 -5.3962 -5.0014 -4.6709 -4.2704 -3.9017
-3.4536 -2.9794 -2.6760 -2.3092 -2.1215 -1.9899
-1.7416 -1.5035 -1.1171 -0.6354 -0.2106 -0.1164
-0.3189 -0.6064 -0.6895 -0.2891 0.5110 1.8263
3.2078 4.1600 4.7351 4.6968 4.2020 3.6643
3.2293 3.0884 3.2106 3.3665 3.7091 3.9966
3.9192 3.8846 3.9257 4.0415 4.1199 3.9621
3.8324 3.5906 3.3049 3.1845 3.0557 3.0109
2.9903 2.7430 2.1773 1.3567 0.2850 -0.9761
-2.2438 -3.1932 -3.6814 -3.8765 -3.6207 -3.3267
-3.4312 -3.7916 -4.4786 -5.3552 -6.2747 -6.9804
-7.3753 -7.6945 -7.8308 -7.9223 -8.2229 -8.5814
-8.9725 -9.4589 -10.0012 -10.5324 -10.8134 -10.8031
-10.7639 -10.7275 -10.6015 -10.1730 -9.3636 -8.2752
-6.8693 -5.3860 -4.0642 -3.0840 -2.4548 -1.9162
-1.3113 -0.3563 0.9123 2.3583 3.7661 4.6585
5.0702 5.0786 4.9087 4.9824 5.4184 6.1344
6.8392 7.3871 7.8128 8.0443 8.0452 7.9229
7.7409 7.5197 7.3208 7.1397 7.0287 7.0585
7.1743 7.3927 7.5439 7.3843 7.0679 6.4938
5.7619 5.2513 4.8592 4.7416 4.7304 4.7154
4.9105 5.1010 5.3978 5.5024 5.3119 4.9861
4.1320 3.2228 2.8036 2.9072 3.4216 4.3178
5.2998 5.8403 6.0363 5.5350 4.7836 4.1880
3.5345 3.3105 3.0594 2.8242 2.5544 2.0092
1.5695 1.0514 0.7779 0.7546 1.0934 1.6862
1.9233 2.0895 2.1110 1.8617 1.3931 0.6790
-0.1509 -1.1600 -2.1673 -2.9906 -3.5955 -3.9549
-4.0576 -3.8700 -3.5563 -3.2660 -2.9729 -2.7703
-2.8497 -3.0989 -3.3827 -3.6301 -3.8672 -4.0978
-4.1090 -4.0278 -3.9848 -3.9503 -3.9335 -3.8187
-3.6646 -3.6049 -3.5806 -3.5974 -3.6814 -3.6394
-3.4060 -3.1251 -2.7237 -2.3941 -2.5174 -2.9897
-3.7253 -4.6635 -5.7258 -6.7396 -7.4668 -8.0493
-8.2967 -8.1473 -7.6077 -6.5725 -5.4672 -4.3321
-3.2558 -2.4894 -1.9209 -1.5708 -1.4205 -1.4756
-1.7370 -2.0347 -2.2849 -2.3157 -2.0945 -1.8350
-1.7220 -1.9461 -2.3951 -2.8273 -3.1764 -3.5162
-3.9111 -4.3470 -4.8530 -5.3627 -5.9022 -6.4129
-6.8880 -7.4500 -8.0465 -8.6421 -9.0556 -9.1919
-9.0705 -8.6999 -8.3209 -8.0913 -8.1324 -8.3947
-8.7774 -9.3114 -9.5756 -9.4729 -9.1826 -8.6281
-7.8421 -6.8404 -5.8910 -5.2703 -5.0649 -5.2143
-5.4066 -5.4710 -5.4150 -5.2647 -5.1116 -4.9837
-4.9258 -4.9202 -4.7979 -4.4759 -4.0474 -3.7804
-3.6320 -3.4957 -3.4593 -3.2744 -2.9141 -2.3988
-1.6016 -0.7708 -0.0016 0.5184 0.5987 0.3690
-0.1612 -0.9482 -1.8761 -2.8432 -3.7897 -4.6616
-5.3814 -5.9051 -6.3438 -6.7144 -6.9879 -7.3949
-7.8925 -8.3172 -8.5730 -8.6505 -8.6692 -8.5973
-8.3471 -7.9830 -7.7048 -7.4771 -7.2876 -7.2222
-7.4024 -7.7216 -7.8971 -7.9317 -7.6348 -7.1774
-6.7116 -6.1487 -5.8845 -6.0283 -6.5613 -7.3128
-7.9821 -8.3714 -8.0596 -7.3118 -6.3858 -5.3888
-4.6262 -3.9746 -3.5433 -3.2287 -3.0037 -2.9739
-3.0868 -3.2147 -3.0962 -2.8338 -2.3867 -1.7902
-1.3216 -1.1610 -1.4037 -1.9358 -2.5323 -2.9692
-3.1167 -2.9263 -2.2887 -1.3673 -0.4627 0.2869
0.6892 0.6080 0.0105 -0.8156 -1.5923 -2.0917
-2.0208 -1.3496 -0.2368 1.0523 2.3424 3.4104
4.1058 4.5679 4.7695 4.7845 4.8993 5.1896
5.7889 6.6384 7.4534 8.0181 8.1040 7.6625
6.8130 5.8347 4.9768 4.3877 4.2076 4.4027
4.8302 5.3016 5.6498 5.7712 5.6890 5.5023
5.2438 4.9096 4.5520 4.1263 3.5653 2.8960
2.0960 1.2530 0.5156 0.0152 -0.3097 -0.4282
-0.3965 -0.5346 -0.6868 -0.8595 -1.0649 -1.1694
-1.2824 -1.3729 -1.5232 -1.6390 -1.5792 -1.2954
-0.7344 0.0245 0.9562 1.7263 2.1146 2.1427
1.7375 1.0794 0.3597 -0.1547 -0.1967 0.2990
1.3025 2.4983 3.6381 4.4456 4.7434 4.6631
4.2505 3.6811 3.1667 2.9156 3.0397 3.4542
4.0983 4.7947 5.4416 5.9691 6.3686 6.6916
6.9306 7.1107 7.3124 7.5924 7.7259 7.6587
7.4095 7.0389 6.7906 6.6720 6.6823 6.8512
7.2256 7.8015 8.4755 9.2074 9.9579 10.6076
11.1481 11.6084 11.8987 12.0667 12.0396 11.8315
11.6242 11.3852 11.2051 11.1640 11.0520 10.7747
10.3369 9.5883 8.7042 7.8529 7.0650 6.4106
5.8524 5.3212 4.7126 4.0124 3.1714 2.4040
1.7375 1.1821 0.8591 0.6416 0.5081 0.2420
-0.0791 -0.5832 -1.3421 -1.9909 -2.4875 -2.6229
-2.4007 -2.0245 -1.6567 -1.4980 -1.6455 -1.9806
-2.4082 -2.9253 -3.3604 -3.5816 -3.5695 -3.4584
-3.2782 -3.1765 -3.2941 -3.4976 -3.7459 -3.9485
-4.1128 -4.2248 -4.2547 -4.2724 -4.2481 -4.2173
-4.1622 -4.0082 -3.6955 -3.2913 -2.8805 -2.4455
-2.1841 -1.9937 -1.8705 -1.9872 -1.9676 -1.9106
-1.7519 -1.1582 -0.3405 0.5557 1.2353 1.6339
1.8841 2.0371 2.2425 2.6010 3.0705 3.6652
4.4465 5.2783 6.1604 7.0902 7.9331 8.6641
9.2877 9.6891 9.9822 10.2921 10.5852 11.0268
11.5337 11.9761 12.2739 12.2609 12.0424 11.7334
11.4487 11.3824 11.6121 12.0611 12.5250 12.8144
12.7304 12.1862 11.2555 10.0662 8.8638 7.8809
7.3264 7.2209 7.2620 7.1966 6.7812 5.8692
4.6500 3.4225 2.4787 1.8504 1.3986 0.9291
0.2513 -0.6541 -1.7846 -3.0019 -4.1380 -5.0967
-5.8211 -6.3233 -6.5670 -6.5520 -6.5063 -6.5548
-6.7032 -7.0020 -7.3754 -7.6816 -7.8907 -7.9271
-7.6283 -7.1737 -6.7518 -6.4717 -6.3840 -6.3579
-6.2374 -5.7847 -4.9865 -3.9625 -2.8946 -1.8938
-1.0528 -0.5113 -0.0464 0.3512 0.6369 0.8880
1.0149 1.1102 1.2371 1.5060 1.9830 2.6094
3.3076 3.9200 4.3998 4.6220 4.5660 4.2635
3.7856 3.2357 2.6999 2.3004 1.9270 1.5368
1.1232 0.7657 0.5109 0.2233 -0.0735 -0.4899
-1.1573 -2.0077 -2.9347 -3.7599 -4.4190 -4.8727
-5.0454 -5.0771 -5.0986 -5.2722 -5.7754 -6.3896
-6.8722 -7.1439 -6.9656 -6.3355 -5.5270 -4.6393
-3.8486 -3.2652 -2.9048 -2.8386 -2.8899 -2.9655
-2.8106 -2.4147 -2.0152 -1.5354 -1.2329 -1.1237
-1.1601 -1.0780 -0.8483 -0.9454 -1.0425 -1.0360
-0.9492 -0.9520 -1.1106 -1.1368 -1.2068 -1.2339
-1.1545 -0.9809 -0.8959 -1.0014 -1.1275 -1.2656
-1.3384 -1.4532 -1.4112 -1.1349 -0.7802 -0.3256
0.1020 0.4324 0.6201 0.6863 0.6285 0.5547
0.6145 0.9580 1.5582 2.2612 2.9893 3.6101
4.0245 4.1123 3.9004 3.3898 2.7307 2.0782
1.5694 1.4453 1.6096 2.0016 2.4983 2.8082
2.6784 2.0829 1.1895 0.2728 -0.4805 -1.0042
-1.1088 -0.9258 -0.6458 -0.5412 -0.8091 -1.2852
-1.8789 -2.3195 -2.4428 -2.2477 -1.7856 -1.2516
-0.7149 -0.3368 -0.3499 -0.7298 -1.2880 -1.9228
-2.4642 -2.8563 -3.0477 -3.0495 -3.0309 -2.9758
-2.9758 -3.1270 -3.4435 -3.8374 -4.2603 -4.6309
-4.8727 -4.9548 -4.9100 -5.0622 -5.5112 -6.1628
-6.8629 -7.6377 -8.4797 -9.2639 -9.9939 -10.5540
-10.9908 -11.3558 -11.6648 -11.9122 -12.0466 -12.0765
-11.9150 -11.6182 -11.3064 -10.8667 -10.5269 -10.4924
-10.4980 -10.5176 -10.4214 -10.1050 -9.6429 -8.9764
-8.2230 -7.2970 -6.2225 -5.1266 -3.9831 -3.0505
-2.3597 -1.8687 -1.4533 -0.9165 -0.1986 0.6621
1.5106 2.3872 3.2105 3.9424 4.4997 4.8264
4.9823 4.8376 4.3522 3.6259 2.7867 1.8691
0.9085 -0.0259 -0.8045 -1.3758 -1.7342 -1.7744
-1.6857 -1.6316 -1.7343 -2.0638 -2.3970 -2.7126
-2.9945 -3.2064 -3.2979 -3.1634 -2.8965 -2.5669
-2.3336 -2.3476 -2.7303 -3.4612 -4.3070 -5.1901
-5.8603 -6.2356 -6.3952 -6.2767 -6.0377 -5.8109
-5.7287 -5.8603 -6.1749 -6.5931 -6.9208 -6.9535
-6.5978 -6.0246 -5.4552 -5.0062 -4.6963 -4.5124
-4.2444 -3.8262 -3.3193 -2.6976 -2.0843 -1.6073
-1.2544 -0.8717 -0.4796 -0.0381 0.4977 1.0336
1.6058 2.1472 2.6196 3.1060 3.6166 4.0255
4.2999 4.4157 4.3867 4.3046 4.0861 3.7725
3.3963 3.0415 2.8530 2.8175 2.8791 2.8959
2.8707 2.8436 2.7680 2.7279 2.8035 2.8819
2.8791 2.8259 2.7101 2.5272 2.3741 2.3190
2.3881 2.5645 2.6868 2.7391 2.6513 2.3311
1.9279 1.4415 0.9514 0.6116 0.4875 0.5902
0.7881 1.0028 1.0896 0.9944 0.8431 0.6592
0.5528 0.5239 0.5379 0.5313 0.4193 0.2597
-0.0493 -0.4768 -0.9053 -1.3105 -1.6316 -1.7903
-1.7548 -1.6232 -1.3291 -0.8801 -0.3602 0.3278
1.0914 1.8205 2.4740 3.0173 3.4364 3.7958
4.2271 4.7069 5.3417 6.1464 7.0080 7.8743
8.6033 9.1233 9.4061 9.4304 9.2204 8.9441
8.6761 8.4941 8.4922 8.6229 8.9235 9.2745
9.6433 10.0353 10.2706 10.2146 9.8720 9.3595
8.8208 8.3298 7.8817 7.6232 7.6194 7.8575
8.2113 8.5100 8.6799 8.7153 8.6640 8.4204
7.9863 7.4327 6.9016 6.4703 6.2789 6.3788
6.5683 6.8586 7.0378 7.0164 6.8549 6.5141
6.1445 5.7272 5.3146 5.1158 5.1456 5.3370
5.5974 5.6945 5.5769 5.3277 4.9300 4.4408
3.9685 3.6352 3.3822 3.0303 2.6028 2.1706
1.7636 1.4835 1.4154 1.5124 1.7589 2.1201
2.3871 2.4329 2.0987 1.4574 0.7768 0.2046
-0.0885 -0.0960 0.1010 0.3521 0.5024 0.4931
0.3894 0.1178 -0.1949 -0.4853 -0.8120 -1.0650
-1.2881 -1.4048 -1.5719 -1.7259 -1.7819 -1.8435
-1.8099 -1.7558 -1.7100 -1.6997 -1.8575 -2.2356
-2.6650 -3.0748 -3.3763 -3.4473 -3.4090 -3.3474
-3.3175 -3.3352 -3.3950 -3.4911 -3.5425 -3.5714
-3.5499 -3.4790 -3.4127 -3.3194 -3.2307 -3.1000
-2.9805 -2.7686 -2.3028 -1.6521 -0.8997 -0.1725
0.4688 0.9103 1.2277 1.4293 1.4284 1.3379
1.0914 0.7367 0.3540 0.0347 -0.0148 0.1925
0.6069 1.1036 1.5124 1.7925 1.8569 1.7253
1.4779 1.1409 0.8058 0.5472 0.3596 0.2494
0.1644 0.0851 0.0627 -0.0008 -0.0689 -0.1865
-0.3639 -0.4619 -0.5693 -0.5917 -0.5105 -0.3359
-0.1072 -0.0708 -0.1837 -0.4265 -0.7700 -1.1574
-1.5952 -2.0134 -2.4382 -2.8442 -3.1626 -3.4407
-3.6573 -3.7311 -3.6620 -3.4753 -3.2419 -3.0655
-2.9824 -3.0235 -3.2036 -3.4482 -3.6928 -3.8776
-3.8748 -3.6704 -3.3511 -2.9348 -2.5698 -2.2916
-2.1478 -2.2468 -2.2515 -2.0769 -1.7651 -1.3254
-0.9987 -0.8157 -0.8148 -0.9296 -1.0295 -0.9259
-0.5338 0.0394 0.8618 1.8233 2.6821 3.2795
3.5325 3.4233 3.0658 2.6662 2.3712 2.2359
2.1547 2.0781 1.8578 1.4284 0.7525 -0.2967
-1.4048 -2.3411 -3.0496 -3.3782 -3.4137 -3.3007
-3.1682 -3.2391 -3.5397 -3.8804 -4.1969 -4.3929
-4.3630 -4.1287 -3.7749 -3.4734 -3.3185 -3.4706
-3.8898 -4.4200 -4.9922 -5.3404 -5.4188 -5.2639
-5.0604 -4.8438 -4.7187 -4.9745 -5.2303 -5.6868
-6.2506 -6.3757 -6.4308 -6.3607 -6.0779 -5.7344
-5.4319 -5.2508 -5.2116 -5.5075 -5.8557 -6.0023
-5.9407 -5.6821 -5.3302 -4.8970 -4.4928 -4.3341
-4.5759 -5.0548 -5.5439 -5.9827 -6.1713 -5.9229
-5.3078 -4.4909 -3.6751 -2.9955 -2.5194 -2.2449
-2.0610 -1.9621 -1.8491 -1.6466 -1.3572 -0.8624
-0.1520 0.6414 1.3574 1.8830 2.0940 1.9241
1.4760 0.9402 0.5882 0.6975 1.3546 2.4543
3.6193 4.5211 5.0690 5.2445 5.1857 5.1036
5.3034 5.7888 6.5225 7.4429 8.3195 9.1653
9.8868 10.5020 10.9566 11.3020 11.6381 11.7800
11.9247 12.0964 12.1207 12.0199 11.8043 11.3898
10.7289 9.9699 9.0738 8.0889 7.2292 6.3937
5.5134 4.6210 3.7015 2.7829 1.9605 1.2174
0.4473 -0.2818 -1.0025 -1.7054 -2.2767 -2.7322
-3.1010 -3.4744 -3.8179 -4.1325 -4.5395 -4.9614
-5.3274 -5.6410 -5.9491 -6.1853 -6.2049 -6.1181
-5.8875 -5.4375 -5.1556 -5.0529 -5.0007 -5.0231
-4.8056 -4.3752 -3.9374 -3.5248 -3.1682 -2.9283
-2.8051 -2.7294 -2.6697 -2.5101 -2.2832 -2.0013
-1.7343 -1.5588 -1.4272 -1.4225 -1.4515 -1.3843
-1.2713 -1.1546 -1.0557 -1.0183 -1.0799 -1.2424
-1.3404 -1.3031 -1.1117 -0.7532 -0.4536 -0.2949
-0.3005 -0.3705 -0.4750 -0.6673 -0.8307 -0.9997
-1.2004 -1.3973 -1.5019 -1.5859 -1.6569 -1.6578
-1.6531 -1.4954 -1.4085 -1.4356 -1.4272 -1.5514
-1.6485 -1.8062 -1.8641 -1.7306 -1.6120 -1.2909
-0.8764 -0.2547 0.4706 1.0466 1.5917 1.8410
1.7999 1.5441 1.0699 0.5434 -0.0596 -0.4078
-0.4918 -0.3658 0.1252 0.8281 1.4526 1.6785
1.7700 1.6151 1.4890 1.6011 1.7794 2.5075
3.2636 3.7929 4.5257 4.8805 5.1278 5.4835
5.4238 5.3463 5.1344 5.0270 4.6741 4.2690
4.1411 3.7957 3.7145 3.3467 3.1945 2.9658
2.3441 1.8447 0.8720 -0.0186 -1.0725 -2.1189
-2.7593 -3.3148 -3.4669 -3.4287 -3.2009 -2.8639
-2.6212 -2.4755 -2.4690 -2.4793 -2.6277 -2.7631
-2.7864 -2.7080 -2.5456 -2.4102 -2.3365 -2.1404
-1.7493 -1.3367 -0.9063 -0.6702 -0.3948 -0.1493
-0.2706 -0.3173 -0.1875 -0.1147 0.0216 0.0346
0.1046 0.4986 0.4939 0.6003 0.7628 0.6358
0.7758 0.5285 0.4146 0.7497 0.9289 0.9308
0.7917 0.5509 0.0001 -0.4863 -0.8839 -1.3180
-1.3824 -1.2144 -1.0408 -0.7430 -0.3770 -0.1175
0.0589 0.2101 0.2587 0.2223 0.2783 0.5042
0.9289 1.4872 1.9614 2.2937 2.6587 2.9602
3.2123 3.5185 3.9376 4.4669 4.7983 4.9747
5.0158 4.8618 4.6163 4.3446 4.2027 4.1878
4.2335 4.2391 4.1010 3.8125 3.3299 2.7315
2.2097 1.8410 1.6869 1.7000 1.6785 1.6636
1.5665 1.3639 1.2052 0.9401 0.7814 0.8281
0.9280 1.1278 1.3583 1.5058 1.4825 1.3994
1.2426 0.9840 0.6591 0.3221 0.0897 -0.0569
-0.0727 -0.1623 -0.3266 -0.4825 -0.7943 -1.1229
-1.3675 -1.4272 -1.3330 -1.2648 -1.1407 -0.9493
-0.7570 -0.5787 -0.5862 -0.7430 -0.8578 -0.9045
-0.9334 -1.0137 -1.0202 -1.0846 -1.2471 -1.3675
-1.5159 -1.6345 -1.8146 -2.1563 -2.6259 -3.0730
-3.2849 -3.3839 -3.3895 -3.1860 -2.9629 -2.7164
-2.5353 -2.6007 -2.9059 -3.3717 -3.7769 -4.2007
-4.5797 -4.8681 -5.1034 -5.1958 -5.3414 -5.5253
-5.6812 -5.7858 -5.7811 -5.6756 -5.5459 -5.5067
-5.4777 -5.4553 -5.4329 -5.3442 -5.2247 -5.0558
-4.8868 -4.7253 -4.5311 -4.2371 -3.7759 -3.2728
-2.7958 -2.3785 -2.0116 -1.6289 -1.2163 -0.7477
-0.2660 0.2652 0.9532 1.7252 2.5336 3.3345
4.0421 4.6433 5.0260 5.3089 5.5712 5.7448
5.9437 6.1089 6.1845 6.1920 6.2144 6.2433
6.1948 6.0856 5.8765 5.5964 5.3546 5.1754
5.0288 4.9346 4.7889 4.5826 4.3623 4.1271
3.9310 3.8097 3.8442 3.9581 4.0580 4.1299
4.2111 4.3278 4.4547 4.6610 4.9570 5.3528
5.8121 6.3049 6.7745 7.0704 7.1694 7.0993
7.0275 7.0779 7.2515 7.6146 8.0646 8.4193
8.5995 8.5659 8.2998 7.9358 7.6044 7.2786
6.9789 6.7045 6.4580 6.3143 6.2471 6.1668
5.9446 5.4853 4.7945 3.8676 2.8379 1.8381
0.9457 0.2904 -0.1670 -0.5470 -0.9176 -1.2788
-1.6028 -1.8903 -2.1815 -2.5409 -3.0357 -3.5939
-4.1494 -4.6301 -4.9690 -5.2136 -5.3237 -5.3582
-5.2649 -5.0950 -4.9410 -4.7543 -4.6245 -4.5088
-4.4014 -4.3361 -4.2754 -4.1008 -3.8488 -3.5603
-3.2635 -3.0870 -2.9778 -2.9890 -3.1767 -3.5659
-3.9496 -4.1988 -4.4826 -4.6647 -4.6301 -4.5144
-4.3706 -4.1522 -4.0243 -4.0420 -4.1148 -4.2259
-4.3053 -4.3790 -4.3585 -4.2801 -4.2231 -4.0980
-3.9916 -3.9916 -4.0663 -4.2119 -4.4994 -4.8094
-5.0549 -5.2845 -5.4217 -5.5356 -5.6486 -5.6924
-5.7102 -5.6999 -5.6588 -5.5225 -5.2892 -5.0194
-4.7076 -4.4406 -4.2707 -4.1195 -3.9599 -3.7330
-3.4371 -3.1272 -2.8145 -2.5269 -2.1993 -1.8016
-1.3311 -0.9260 -0.6413 -0.4247 -0.3183 -0.2343
-0.1409 0.0075 0.2213 0.4845 0.8477 1.1660
1.3424 1.4339 1.4498 1.4750 1.5263 1.5478
1.5319 1.4684 1.4339 1.3835 1.3041 1.2313
1.1791 1.2267 1.3527 1.5954 1.8540 2.0640
2.2563 2.2918 2.1751 2.0015 1.7886 1.5273
1.2845 1.0456 0.7907 0.4780 0.0785 -0.2791
-0.6459 -1.0782 -1.5160 -1.9781 -2.4803 -2.8882
-3.1225 -3.2644 -3.3484 -3.4240 -3.4082 -3.3120
-3.0908 -2.7071 -2.4336 -2.3076 -2.3356 -2.5316
-2.7995 -3.0562 -3.1757 -3.1683 -3.0777 -2.9508
-2.9116 -2.8920 -2.8817 -2.9246 -2.9097 -2.9386
-3.0572 -3.2812 -3.6276 -3.9758 -4.2997 -4.5116
-4.6255 -4.6777 -4.6059 -4.4257 -4.1783 -3.8945
-3.5827 -3.3186 -3.2140 -3.2346 -3.3064 -3.3400
-3.2075 -2.9172 -2.4794 -2.0023 -1.6541 -1.4992
-1.5673 -1.6616 -1.6392 -1.4553 -1.0586 -0.5134
0.1485 0.6161 0.7039 0.4995 0.1027 -0.1867
-0.2688 -0.1400 0.1494 0.5051 0.8336 1.0315
1.0978 0.9979 0.8775 0.8542 0.9242 1.0577
1.1445 1.1445 1.1324 1.1566 1.1221 1.0465
1.0418 1.0007 0.9531 0.9541 0.9055 0.8841
0.8486 0.8150 0.7748 0.6861 0.5835 0.3930
0.1858 0.0262 0.0402 0.2483 0.5853 1.0203
1.3471 1.5366 1.5692 1.3835 1.0511 0.7160
0.5611 0.5928 0.8336 1.1940 1.4675 1.5459
1.4143 1.1445 0.7160 0.3295 0.0066 -0.3398
-0.5610 -0.7449 -0.8905 -0.9914 -1.1164 -1.2854
-1.4889 -1.6952 -1.8950 -1.9445 -1.7848 -1.5309
-1.2322 -0.9839 -0.8289 -0.7038 -0.6562 -0.7132
-0.7580 -0.7318 -0.6852 -0.5302 -0.3192 -0.1316
0.0299 0.0374 -0.0149 -0.0243 0.0420 0.2138
0.4229 0.6665 0.9335 1.1529 1.2761 1.3275
1.3657 1.4525 1.5907 1.7326 1.9156 2.0864
2.1956 2.2423 2.1527 2.0145 1.8007 1.5674
1.4852 1.4927 1.5655 1.7018 1.8885 2.0584
2.2133 2.3870 2.5065 2.6446 2.8071 2.9994
3.2477 3.4577 3.6537 3.6967 3.5539 3.3718
3.1618 3.0012 2.8836 2.8267 2.8257 2.7520
2.5737 2.3534 2.1685 2.0939 2.1816 2.4206
2.7613 3.0918 3.2906 3.4418 3.4736 3.3877
3.3242 3.2075 3.2383 3.3401 3.4493 3.6257
3.7368 3.9618 4.1700 4.2969 4.4024 4.4043
4.4183 4.4565 4.5714 4.8225 5.1912 5.5945
5.9427 6.2507 6.4944 6.6521 6.7539 6.8948
7.1068 7.4344 7.8844 8.3464 8.9056 9.4293
9.7971 10.0426 10.0837 9.9493 9.5796 9.0419
8.4342 7.8965 7.5408 7.4335 7.6304 7.9161
8.2260 8.5014 8.6377 8.5695 8.2895 7.8405
7.2785 6.7249 6.1779 5.7914 5.6496 5.5963
5.5777 5.4470 5.1623 4.7898 4.3184 3.8498
3.4119 3.0656 2.8350 2.6399 2.5298 2.3860
2.1106 1.7363 1.1183 0.3454 -0.4593 -1.3629
-2.1303 -2.8948 -3.6061 -4.0719 -4.7133 -5.2687
-5.6486 -6.0099 -6.2545 -6.7651 -7.5259 -8.2998
-9.0036 -9.4984 -9.7644 -9.8148 -9.7056 -9.4592
-9.2818 -9.2277 -9.2137 -9.2445 -9.3873 -9.6702
-9.8102 -9.9567 -10.0874 -10.1285 -10.3124 -10.5364
-10.7334 -10.8716 -11.0004 -11.0293 -10.8417 -10.4935
-9.9866 -9.3696 -8.7852 -8.2400 -7.7546 -7.4195
-7.1553 -6.9350 -6.7548 -6.5952 -6.5336 -6.4813
-6.4337 -6.3926 -6.1471 -5.9203 -5.6598 -5.2379
-4.9056 -4.6031 -4.4491 -4.4407 -4.4398 -4.4818
-4.3856 -4.2820 -4.2811 -4.1756 -4.1784 -4.1224
-3.8666 -3.6500 -3.1543 -2.4915 -2.0145 -1.8633
-1.9538 -2.1284 -2.3832 -2.5382 -2.7044 -2.7800
-2.8080 -2.8621 -2.7688 -2.8481 -2.9704 -3.0134
-3.1357 -3.2691 -3.4372 -3.4110 -3.2710 -2.8649
-2.2666 -1.9697 -1.5748 -1.1762 -0.8271 -0.4145
-0.2147 -0.1391 -0.0943 -0.0000 0.0999 0.1997
0.3174 0.3743 0.2922 0.0439 -0.2147 -0.4686
-0.8028 -1.0399 -1.1650 -1.3265 -1.4918 -1.6150
-1.5748 -1.4815 -1.2406 -0.9018 -0.7879 -0.5937
-0.3865 -0.2586 -0.0924 0.0121 0.1419 0.3127
0.5153 0.7963 1.2079 1.6672 2.1629 2.8425
3.5594 4.2353 4.9578 5.6355 6.2451 6.6792
6.9676 7.2486 7.4138 7.7191 8.0738 8.1196
8.0160 7.8059 7.6108 7.4456 7.1207 6.8061
6.5420 6.2862 6.0668 5.6981 5.3676 5.0885
4.7020 4.5097 4.2334 3.8469 3.6705 3.4371
3.1748 2.9246 2.6661 2.4747 2.3487 2.3524
2.3384 2.1778 1.8996 1.5337 1.0978 0.6833
0.4424 0.4116 0.5302 0.7094 0.9913 1.3125
1.5738 1.7587 1.8763 1.9603 2.0761 2.2712
2.4887 2.7034 2.9965 3.3130 3.5099 3.5967
3.4577 3.2588 3.0376 2.6362 2.2590 1.8558
1.4824 1.2023 0.8691 0.5423 0.1773 -0.2586
-0.7123 -1.2360 -1.7560 -2.2087 -2.7119 -3.1777
-3.4820 -3.7705 -3.9516 -3.9488 -3.8302 -3.5249
-3.1198 -2.6904 -2.1994 -1.6887 -1.2024 -0.7646
-0.3538 0.0382 0.3108 0.4331 0.5713 0.7990
0.9353 0.9624 0.9745 0.9176 0.7262 0.3566
-0.1307 -0.6796 -1.2500 -1.7345 -2.1144 -2.4654
-2.7399 -2.8892 -3.0489 -3.2617 -3.5660 -4.0496
-4.5798 -5.0802 -5.5394 -5.8512 -5.9931 -5.9100
-5.6711 -5.3910 -5.0447 -4.7413 -4.5322 -4.4211
-4.4230 -4.3567 -4.1103 -3.7415 -3.3046 -2.8248
-2.2993 -1.7345 -1.2388 -0.8113 -0.3903 0.0317
0.5190 0.9708 1.3442 1.5169 1.4945 1.4347
1.3209 1.3535 1.5748 2.0032 2.5288 3.0236
3.5771 3.9337 4.2166 4.4275 4.4518 4.4098
4.1914 3.9543 3.7013 3.4072 3.2523 3.1916
3.2047 3.3157 3.3848 3.4586 3.5734 3.5220
3.4268 3.3540 3.1776 3.0618 3.0880 3.2093
3.3876 3.5650 3.7545 3.7806 3.6201 3.2971
2.8210 2.3944 1.9939 1.6392 1.3349 0.9913
0.6385 0.3005 -0.0019 -0.2810 -0.5013 -0.6796
-0.9709 -1.2958 -1.5907 -1.8437 -1.9399 -1.9753
-1.9520 -1.8559 -1.7028 -1.3788 -1.0129 -0.5900
-0.0439 0.2791 0.5171 0.9334 1.2714 1.4861
1.6849 1.9948 2.4504 2.9638 3.5071 4.1288
4.7468 5.2275 5.5076 5.6178 5.8399 5.9501
6.0490 6.4476 6.6829 6.8686 7.0974 7.0553
6.8033 6.5578 6.2133 5.7307 5.3741 5.0334
4.7197 4.4275 4.1325 3.8945 3.4735 2.8452
2.0508 1.0875 0.0494 -0.9214 -1.6841 -2.1975
-2.4710 -2.6493 -2.8734 -3.2020 -3.4998 -3.7836
-4.1971 -4.4921 -4.6676 -4.7068 -4.4575 -4.1047
-3.6407 -3.1310 -2.6998 -2.3404 -2.0958 -1.8969
-1.6738 -1.3480 -0.9336 -0.4304 0.0867 0.5246
0.9372 1.2209 1.3787 1.5075 1.5915 1.6625
1.7792 2.0107 2.2945 2.4980 2.6865 2.8695
2.9965 3.1169 3.2186 3.3372 3.5183 3.7059
3.8898 4.0691 4.0980 3.8824 3.5444 3.0982
2.5372 2.0154 1.5663 1.2331 1.0538 0.9820
0.9969 1.0361 1.1425 1.2013 1.1631 1.0538
0.8438 0.6814 0.6095 0.6571 0.8046 1.0426
1.2863 1.4291 1.5430 1.6102 1.6756 1.8072
2.0163 2.2525 2.4345 2.5260 2.5008 2.4149
2.1927 1.7773 1.2807 0.7645 0.3098 -0.1196
-0.5294 -0.8794 -1.2892 -1.7775 -2.2237 -2.6279
-3.1058 -3.5549 -4.0151 -4.5864 -5.2212 -5.9633
-6.6821 -7.2263 -7.5764 -7.7454 -7.8098 -7.7678
-7.6567 -7.5941 -7.5381 -7.5418 -7.5969 -7.4877
-7.2403 -6.8977 -6.3638 -5.7318 -5.0951 -4.5248
-4.0720 -3.6631 -3.2739 -2.9070 -2.5579 -2.1742
-1.7709 -1.4134 -1.0783 -0.8020 -0.5509 -0.3184
-0.1933 -0.0888 -0.0141 -0.0020 -0.0356 -0.1336
-0.2745 -0.5107 -0.6825 -0.6797 -0.5518 -0.3081
-0.0300 0.1941 0.3201 0.3462 0.2342 0.0690
-0.0776 -0.1551 -0.0589 0.1745 0.4657 0.7570
0.9782 1.0445 0.9455 0.7672 0.5544 0.3789
0.3584 0.3910 0.4312 0.4499 0.2734 -0.0906
-0.5266 -1.0400 -1.5833 -2.0603 -2.4869 -2.7782
-2.9621 -3.1525 -3.4092 -3.6772 -3.9441 -4.2914
-4.6256 -4.9449 -5.2548 -5.4966 -5.6300 -5.6375
-5.5824 -5.4443 -5.1456 -4.7927 -4.4846 -4.2046
-3.9189 -3.5922 -3.3084 -3.1115 -2.9584 -2.8547
-2.8202 -2.8781 -3.0125 -3.1637 -3.3140 -3.4494
-3.5773 -3.6968 -3.7864 -3.8947 -3.9423 -3.9768
-4.1131 -4.2653 -4.4744 -4.7442 -5.0363 -5.3257
-5.5815 -5.8625 -6.1379 -6.4021 -6.6028 -6.7223
-6.7484 -6.6289 -6.4189 -6.1519 -5.8653 -5.5330
-5.2128 -4.9355 -4.6639 -4.3185 -3.8648 -3.3812
-2.8090 -2.2480 -1.7775 -1.3957 -1.1418 -0.9252
-0.7030 -0.5051 -0.3586 -0.2736 -0.2662 -0.3651
-0.6340 -1.0391 -1.4526 -1.8587 -2.3311 -2.8408
-3.2776 -3.6604 -4.0039 -4.3101 -4.6247 -4.9365
-5.3341 -5.7477 -6.0193 -6.2602 -6.4347 -6.4618
-6.4077 -6.2322 -5.9941 -5.7664 -5.5862 -5.4602
-5.3248 -5.2119 -5.0074 -4.6471 -4.2298 -3.7677
-3.2534 -2.7325 -2.2676 -1.8242 -1.4284 -1.0438
-0.5920 -0.1401 0.3938 1.0454 1.6036 2.1068
2.6772 3.1719 3.5407 3.8048 3.9402 4.0270
4.1502 4.2567 4.3584 4.4723 4.5442 4.5666
4.5283 4.4723 4.3435 4.0933 3.7320 3.2895
2.8788 2.5549 2.3411 2.2123 2.1796 2.1983
2.2020 2.1731 2.0713 1.9024 1.6877 1.4888
1.3535 1.3703 1.5532 1.7763 2.0545 2.2590
2.3168 2.3691 2.4083 2.4606 2.5829 2.8060
3.0879 3.4529 3.8506 4.2062 4.5283 4.7085
4.7551 4.6609 4.4611 4.2464 4.0653 3.9449
3.8226 3.7124 3.6144 3.5360 3.4538 3.3876
3.3493 3.2270 3.1616 3.1476 3.1028 3.1271
3.1140 3.0524 3.0347 3.1047 3.2503 3.3502
3.5192 3.7600 3.9038 3.9841 3.9878 3.9206
3.8524 3.7852 3.7572 3.8804 4.1409 4.4620
4.8065 5.1593 5.4693 5.6504 5.7362 5.7680
5.7979 5.8128 5.8548 5.9976 6.2086 6.4644
6.7454 7.0599 7.3577 7.5808 7.7302 7.8478
7.9384 7.9570 7.9132 7.8478 7.7545 7.6397
7.5230 7.3913 7.2466 7.0553 6.8042 6.4690
6.1068 5.7754 5.4272 5.0959 4.7318 4.3397
3.9682 3.5444 3.1430 2.7985 2.4858 2.2207
2.0134 1.8827 1.7119 1.5121 1.3656 1.2088
1.1210 1.1975 1.4328 1.8547 2.3682 2.9031
3.4454 3.8720 4.2286 4.5470 4.7859 5.0174
5.1911 5.3488 5.5701 5.8156 6.0975 6.4588
6.8536 7.1888 7.4100 7.4950 7.4361 7.2000
6.8471 6.3458 5.8744 5.5206 5.1985 5.0342
4.8923 4.7299 4.4359 3.9420 3.3147 2.5782
1.8445 1.1779 0.6682 0.2398 -0.1066 -0.4090
-0.8011 -1.2557 -1.7075 -2.1285 -2.4739 -2.6784
-2.7120 -2.5738 -2.3152 -1.9185 -1.4508 -0.9542
-0.5182 -0.1626 0.2650 0.7168 1.1845 1.7287
2.2888 2.7528 3.0785 3.2792 3.3782 3.3735
3.3558 3.3418 3.2372 3.0841 2.8750 2.6547
2.4652 2.3196 2.1917 2.0256 1.8136 1.5327
1.0855 0.5030 -0.1038 -0.7124 -1.2604 -1.8205
-2.3302 -2.8324 -3.4401 -4.0497 -4.6667 -5.2604
-5.7244 -6.0997 -6.4469 -6.6924 -6.9249 -7.0462
-6.9631 -6.8763 -6.7410 -6.5664 -6.4068 -6.1930
-6.0035 -5.7785 -5.4471 -5.1381 -4.8264 -4.4838
-4.1514 -3.8733 -3.6072 -3.3150 -3.0163 -2.7008
-2.3825 -2.1453 -2.0268 -1.9596 -1.9894 -1.9521
-1.7943 -1.6571 -1.4032 -1.1334 -0.9635 -0.8580
-0.8534 -0.8804 -0.9906 -1.1717 -1.4069 -1.7243
-2.1099 -2.5860 -3.0798 -3.5829 -4.0021 -4.3120
-4.5108 -4.5790 -4.6210 -4.5911 -4.5669 -4.6135
-4.6462 -4.6630 -4.6266 -4.4688 -4.2429 -3.9815
-3.6716 -3.3953 -3.1769 -2.9594 -2.7017 -2.4254
-2.0977 -1.7103 -1.3341 -0.9682 -0.7162 -0.5827
-0.5491 -0.5789 -0.5668 -0.5351 -0.4370 -0.3493
-0.3325 -0.3456 -0.4128 -0.5080 -0.6517 -0.9234
-1.2968 -1.6273 -1.9260 -2.1836 -2.3657 -2.5580
-2.7447 -3.0079 -3.3122 -3.5783 -3.8593 -4.0338
-4.0842 -4.0628 -3.9610 -3.7743 -3.5755 -3.3925
-3.2497 -3.2114 -3.1554 -3.0975 -3.0200 -2.9052
-2.7923 -2.5944 -2.3573 -2.1005 -1.8382 -1.5470
-1.2725 -1.0830 -0.8581 -0.5985 -0.3316 -0.0366
0.2789 0.5693 0.7718 0.9072 0.9343 0.8372
0.6934 0.5711 0.5114 0.4890 0.4722 0.4918
0.5273 0.5207 0.4694 0.3695 0.2995 0.3023
0.3536 0.4656 0.5067 0.4106 0.2453 0.0250
-0.1953 -0.3138 -0.3185 -0.2074 0.0260 0.2715
0.4759 0.6607 0.7802 0.7961 0.7662 0.6626
0.5123 0.3872 0.2323 0.1828 0.2061 0.1072
-0.0151 -0.0842 -0.2242 -0.4231 -0.5817 -0.7143
-0.8347 -0.9113 -0.9477 -0.8963 -0.6751 -0.4063
-0.2336 -0.1981 -0.3390 -0.5696 -0.7451 -0.8077
-0.7843 -0.6891 -0.5351 -0.4268 -0.3801 -0.4259
-0.5603 -0.7003 -0.7974 -0.8609 -0.9327 -0.8879
-0.7918 -0.7180 -0.5930 -0.4781 -0.3614 -0.3204
-0.2774 -0.1897 -0.1523 -0.0095 0.1585 0.2547
0.2631 0.1781 0.1380 0.1268 0.1538 0.2108
0.2575 0.3657 0.3788 0.3191 0.2901 0.1221
-0.1402 -0.4688 -0.7797 -0.9692 -1.0606 -1.0606
-1.0457 -1.0065 -1.0821 -1.2576 -1.4919 -1.8411
-2.1323 -2.4572 -2.7652 -2.8940 -2.9407 -2.9435
-2.9435 -2.9650 -2.9846 -3.0490 -3.1489 -3.2796
-3.4187 -3.5092 -3.7155 -3.9097 -3.9918 -4.0917
-4.0805 -3.9834 -3.8070 -3.6362 -3.5886 -3.5876
-3.6913 -3.8388 -3.9564 -4.0796 -4.1384 -4.1263
-4.1197 -4.0740 -4.0273 -3.9984 -4.0105 -4.1599
-4.3793 -4.7106 -5.0999 -5.4518 -5.7599 -6.0241
-6.2705 -6.4376 -6.5590 -6.5468 -6.4124 -6.2593
-6.1240 -6.0838 -6.0838 -6.1445 -6.1996 -6.1837
-6.0680 -5.8458 -5.5975 -5.2885 -4.9618 -4.6061
-4.2262 -3.8985 -3.6044 -3.3132 -2.9837 -2.6187
-2.2210 -1.7860 -1.4014 -1.0513 -0.7190 -0.5043
-0.3568 -0.2448 -0.1944 -0.1290 -0.0291 0.1034
0.3191 0.5795 0.8231 1.0444 1.1835 1.2199
1.1797 1.0864 1.0136 0.9940 1.0033 1.0481
1.1153 1.1816 1.2628 1.3300 1.3730 1.4495
1.5475 1.6810 1.9125 2.2225 2.6164 3.0850
3.5266 3.8794 4.1707 4.4218 4.6561 4.9324
5.2377 5.5485 5.8977 6.2151 6.4568 6.6183
6.6547 6.5866 6.4195 6.2561 6.1068 5.9238
5.8090 5.6774 5.5168 5.3525 5.1042 4.8988
4.7877 4.6757 4.5422 4.3779 4.2015 3.9784
3.7133 3.4790 3.2334 3.0281 2.9067 2.8554
2.8731 2.9310 2.9786 2.9665 2.9076 2.7779
2.6173 2.4848 2.3774 2.3083 2.3065 2.3139
2.2971 2.3177 2.3111 2.3065 2.2925 2.2122
2.0908 1.8668 1.6231 1.4635 1.3888 1.4495
1.6437 1.8603 2.0460 2.1804 2.2663 2.2523
2.1748 2.1216 2.0442 2.0526 2.1394 2.2028
2.2467 2.2458 2.2421 2.2411 2.2710 2.3671
2.4362 2.4904 2.5212 2.4717 2.4045 2.3083
2.1972 2.0694 1.8883 1.7062 1.5046 1.3067
1.1312 0.9230 0.7260 0.5356 0.3564 0.2080
0.0558 -0.0189 -0.0142 -0.0077 0.0315 0.0325
-0.0170 -0.0236 -0.0460 -0.0796 -0.0413 0.0567
0.2817 0.6551 1.0117 1.3085 1.5270 1.6642
1.8584 1.9947 2.0133 2.0871 2.1870 2.2897
2.4829 2.7125 2.9048 3.0215 3.0561 3.0038
2.8516 2.7153 2.5632 2.4315 2.3317 2.1179
1.8518 1.5111 1.2152 0.9314 0.6103 0.4124
0.2023 0.0651 -0.0562 -0.1720 -0.1599 -0.3550
-0.6901 -0.8385 -0.8394 -0.8703 -0.8301 -0.6369
-0.4632 -0.2504 -0.0245 0.1557 0.3078 0.4086
0.6019 0.8399 1.0789 1.3702 1.6689 1.9069
2.0759 2.1366 2.1692 2.2056 2.1496 2.2327
2.2887 2.2019 2.1310 1.9816 1.9209 1.8938
1.8238 2.0180 2.1487 2.0311 2.0087 1.9639
1.8901 1.7417 1.5223 1.4178 1.2525 1.1228
1.1778 1.2441 1.4224 1.7482 2.0535 2.3447
2.5221 2.6070 2.6640 2.6472 2.6724 2.6911
2.7069 2.7853 2.7891 2.7769 2.7909 2.7433
2.6425 2.5128 2.3727 2.2523 2.2159 2.1879
2.1244 2.0992 2.0441 1.8985 1.6978 1.4775
1.2880 1.1237 0.9491 0.8194 0.7316 0.6308
0.5440 0.5207 0.5384 0.5860 0.6943 0.8119
0.8735 0.8847 0.9669 1.1144 1.2889 1.5214
1.7071 1.9078 2.1888 2.4101 2.5800 2.7956
2.9664 3.0728 3.1615 3.1559 3.1139 3.0588
2.9543 2.8581 2.7387 2.6369 2.6201 2.5716
2.4661 2.3690 2.1935 1.9256 1.6483 1.4355
1.3197 1.2861 1.3253 1.3197 1.2908 1.2310
0.9669 0.5907 0.2537 0.0698 -0.0367 -0.1365
-0.1907 -0.2887 -0.3307 -0.3708 -0.5062 -0.6920
-0.9720 -1.3016 -1.6432 -1.9289 -2.0558 -2.0409
-1.9466 -1.7375 -1.5713 -1.5349 -1.5639 -1.6936
-1.7935 -1.8570 -1.8757 -1.7870 -1.6563 -1.4649
-1.2241 -0.9692 -0.7134 -0.5473 -0.4549 -0.3709
-0.2560 -0.0815 0.0819 0.3022 0.5710 0.7391
0.8567 0.9379 0.9099 0.7820 0.5617 0.2919
0.0408 -0.1944 -0.4045 -0.6173 -0.8451 -1.1055
-1.4098 -1.6759 -1.9671 -2.2015 -2.3564 -2.5487
-2.6747 -2.7280 -2.7616 -2.8101 -2.8876 -2.9483
-2.9175 -2.7401 -2.4787 -2.1576 -1.7982 -1.4883
-1.2343 -1.0682 -0.9944 -0.9440 -0.9272 -0.8787
-0.7592 -0.5809 -0.3569 -0.1674 0.0698 0.3134
0.4460 0.5477 0.5486 0.4291 0.3050 0.2443
0.2060 0.1547 0.0175 -0.1860 -0.4157 -0.7685
-1.1727 -1.6983 -2.2565 -2.7616 -3.2461 -3.6400
-3.9910 -4.2598 -4.5371 -4.7686 -4.9880 -5.2447
-5.5061 -5.8001 -6.0223 -6.2743 -6.4209 -6.3808
-6.2305 -5.9868 -5.7758 -5.6078 -5.4622 -5.3912
-5.3259 -5.1905 -5.1840 -5.1028 -4.7667 -4.4811
-4.1842 -3.9275 -3.8034 -3.6811 -3.5345 -3.3665
-3.2199 -3.0099 -2.9147 -2.9259 -2.8829 -2.8745
-2.8204 -2.7625 -2.7196 -2.6243 -2.5235 -2.4582
-2.4218 -2.4600 -2.5833 -2.6897 -2.7616 -2.7672
-2.7065 -2.6047 -2.4601 -2.3536 -2.2855 -2.3004
-2.3238 -2.3051 -2.2948 -2.1977 -2.0586 -1.8943
-1.7375 -1.5891 -1.4752 -1.4621 -1.4547 -1.5181
-1.5555 -1.4911 -1.4061 -1.2829 -1.1597 -1.0346
-0.9805 -0.9450 -0.8274 -0.6845 -0.4838 -0.2365
-0.0722 -0.0217 0.0109 -0.0283 -0.1132 -0.1506
-0.1720 -0.0946 0.0221 0.1874 0.3433 0.3647
0.3675 0.3208 0.2648 0.2098 0.1621 0.1780
0.1958 0.1631 0.0613 -0.0040 -0.0964 -0.1636
-0.2029 -0.2953 -0.3606 -0.4810 -0.6528 -0.8143
-0.9254 -1.0253 -1.1149 -1.1345 -1.0794 -0.9963
-0.9749 -1.0337 -1.1952 -1.4416 -1.7767 -2.1632
-2.5310 -2.8531 -3.0398 -3.1200 -3.1219 -3.0388
-2.9520 -2.8680 -2.8269 -2.9072 -3.1060 -3.3581
-3.6260 -3.9462 -4.2897 -4.5128 -4.6809 -4.9516
-5.1654 -5.2988 -5.4547 -5.6004 -5.7311 -5.7693
-5.7180 -5.6022 -5.4277 -5.2914 -5.2046 -5.1644
-5.2027 -5.2531 -5.2970 -5.3315 -5.2242 -5.0029
-4.7471 -4.4876 -4.2160 -3.8865 -3.6288 -3.4020
-3.1593 -2.9679 -2.7495 -2.5189 -2.2659 -1.9438
-1.5882 -1.2269 -0.9329 -0.7368 -0.6239 -0.5940
-0.5277 -0.3578 -0.1132 0.2527 0.5934 0.8800
1.1563 1.3159 1.4774 1.5568 1.5988 1.7370
1.7902 1.8014 1.7967 1.7370 1.6137 1.4774
1.4214 1.3934 1.3365 1.2487 1.2114 1.2161
1.1768 1.0956 1.0490 1.0480 1.0648 1.2161
1.4336 1.6492 1.9414 2.2196 2.4903 2.7367
2.8646 2.9925 3.1820 3.4004 3.6217 3.8280
4.0119 4.1416 4.2705 4.3834 4.4665 4.5375
4.5561 4.5925 4.5851 4.5207 4.5225 4.5225
4.5403 4.5711 4.5981 4.6504 4.6719 4.6495
4.5393 4.3498 4.1351 3.9139 3.7934 3.7020
3.6049 3.6282 3.6273 3.6236 3.6236 3.5545
3.4854 3.4695 3.4565 3.4667 3.5806 3.6301
3.7486 3.9409 4.0082 4.0791 4.1566 4.1510
4.1323 4.1043 4.0856 4.1146 4.1370 4.1827
4.2294 4.2481 4.1752 4.0240 3.8149 3.4677
3.0056 2.4837 1.9983 1.5997 1.2403 0.9061
0.6373 0.3722 0.1126 -0.1273 -0.3812 -0.6239
-0.9030 -1.1821 -1.4631 -1.7413 -1.9924 -2.2659
-2.5030 -2.6991 -2.7999 -2.7831 -2.6916 -2.4937
-2.2809 -2.0718 -1.8356 -1.6031 -1.3782 -1.1364
-0.8983 -0.6566 -0.3793 -0.1189 0.1976 0.5196
0.8034 1.1012 1.2739 1.3775 1.4083 1.4298
1.5036 1.5502 1.6156 1.6875 1.7649 1.7799
1.7453 1.6576 1.5652 1.4531 1.3449 1.3047
1.2319 1.1526 1.0928 1.0163 0.9612 0.9238
0.8604 0.8594 0.8240 0.8725 0.9948 1.0573
1.2188 1.3299 1.4597 1.5325 1.5586 1.6968
1.7556 1.9022 2.0674 2.2364 2.4632 2.6452
2.8543 3.0280 3.2623 3.5031 3.6217 3.6721
3.5937 3.3902 3.1316 2.8273 2.5649 2.4417
2.4389 2.5705 2.8151 3.0485 3.2707 3.4639
3.5376 3.5759 3.6002 3.5871 3.6133 3.6963
3.7934 3.8560 3.9082 3.9755 3.9969 4.0072
3.9997 3.9773 3.9792 3.9381 3.8252 3.6655
3.5264 3.3948 3.2651 3.1932 3.1297 3.0261
2.9281 2.9113 2.8590 2.7199 2.6069 2.4809
2.2793 2.0198 1.7920 1.6044 1.4765 1.3785
1.2114 1.0517 0.9117 0.7726 0.5980 0.4011
0.2424 0.0454 -0.2029 -0.4596 -0.6575 -0.8078
-0.9450 -1.0188 -1.0851 -1.0916 -1.0636 -1.0860
-1.0729 -1.0673 -1.0823 -1.1196 -1.1784 -1.1765
-1.1476 -1.1224 -1.0841 -0.9544 -0.7303 -0.4409
-0.1292 0.1229 0.3329 0.4356 0.4412 0.4132
0.3703 0.3507 0.3525 0.3544 0.3516 0.3665
0.3525 0.3404 0.3525 0.4029 0.5280 0.6979
0.9322 1.1759 1.3654 1.4821 1.5399 1.5315
1.4690 1.4102 1.3962 1.4569 1.5315 1.6146
1.7080 1.7920 1.7341 1.6081 1.5409 1.4438
1.3812 1.3159 1.2804 1.1572 1.0181 0.9948
0.7819 0.6158 0.6008 0.4393 0.2526 0.0958
-0.0750 -0.1964 -0.3644 -0.5455 -0.6958 -0.9273
-1.2008 -1.3978 -1.4967 -1.4613 -1.4239 -1.5229
-1.5322 -1.5976 -1.7768 -1.8664 -1.8561 -1.8337
-1.8982 -1.9252 -1.9019 -1.8655 -1.8842 -1.9224
-2.0102 -2.0382 -2.0083 -2.0942 -2.0541 -2.0316
-2.0307 -2.0008 -2.0447 -2.0447 -2.0989 -2.1521
-2.1819 -2.2473 -2.2846 -2.3836 -2.4639 -2.5096
-2.6776 -2.8541 -3.0109 -3.1369 -3.2517 -3.3600
-3.3544 -3.3442 -3.2844 -3.1285 -2.9147 -2.6590
-2.4237 -2.1707 -2.0139 -1.9178 -1.7843 -1.6891
-1.5994 -1.4902 -1.3287 -1.1728 -1.0776 -0.9917
-0.9283 -0.9087 -0.8918 -0.8368 -0.7360 -0.5614
-0.3411 -0.1124 0.1005 0.3226 0.5308 0.6624
0.8137 0.9331 0.9994 1.0797 1.1366 1.1469
1.1254 1.1422 1.1301 1.1441 1.1852 1.1096
1.0004 0.8641 0.6568 0.4291 0.2162 0.0146
-0.1152 -0.1665 -0.1889 -0.1441 -0.0545 0.0127
0.0500 0.0351 -0.0274 -0.1264 -0.3056 -0.4690
-0.6099 -0.8386 -1.1047 -1.4034 -1.7871 -2.2109
-2.6636 -3.0585 -3.3554 -3.6280 -3.7876 -3.8399
-4.0695 -4.3738 -4.6147 -4.9293 -5.1785 -5.3885
-5.5258 -5.5556 -5.5482 -5.4520 -5.3829 -5.3717
-5.3587 -5.4156 -5.4847 -5.4763 -5.4417 -5.3325
-5.2009 -5.0954 -5.0170 -5.0030 -5.0273 -5.0338
-4.9853 -4.9470 -4.8957 -4.7650 -4.5867 -4.3477
-4.0387 -3.7166 -3.4142 -3.1883 -3.0576 -2.9138
-2.7215 -2.4741 -2.2137 -1.9803 -1.7133 -1.4529
-1.1728 -0.9180 -0.7294 -0.5623 -0.4494 -0.3784
-0.3728 -0.3560 -0.3831 -0.4718 -0.5353 -0.6155
-0.6828 -0.7266 -0.7649 -0.7798 -0.7854 -0.7920
-0.7798 -0.8051 -0.8583 -0.9665 -1.0571 -1.1626
-1.3493 -1.4912 -1.6732 -1.8608 -1.9990 -2.0765
-2.0840 -2.0746 -2.0186 -1.9645 -1.9113 -1.8300
-1.7908 -1.7722 -1.6284 -1.4314 -1.3231 -1.2149
-1.0748 -0.9021 -0.7005 -0.4877 -0.2702 -0.0181
0.2713 0.4776 0.6419 0.8239 0.9378 0.9453
0.9023 0.8398 0.7072 0.5457 0.4384 0.3226
0.1312 -0.0116 -0.1563 -0.3700 -0.5745 -0.8639
-1.1551 -1.4557 -1.7871 -2.0494 -2.3229 -2.5890
-2.8336 -2.9540 -3.0100 -3.2032 -3.3862 -3.4553
-3.5430 -3.6560 -3.7073 -3.7727 -3.8380 -3.7951
-3.7204 -3.6308 -3.4497 -3.2368 -3.0436 -2.8177
-2.5946 -2.4359 -2.2361 -1.9934 -1.7694 -1.5621
-1.3428 -1.1542 -1.0487 -0.9199 -0.8536 -0.7799
-0.5904 -0.4522 -0.3551 -0.2487 -0.1806 -0.1572
-0.1572 -0.2543 -0.3505 -0.4111 -0.5698 -0.7705
-0.9274 -0.9946 -1.0608 -1.1458 -1.1738 -1.1897
-1.1701 -1.0973 -0.9862 -0.8555 -0.7117 -0.5493
-0.4009 -0.2991 -0.1955 -0.0667 0.0575 0.1994
0.3562 0.5392 0.7697 1.0843 1.4409 1.7490
2.0253 2.2662 2.4491 2.5677 2.7105 2.8991
3.0008 3.0998 3.1586 3.0531 3.0932 3.1754
3.1100 3.0923 3.0531 3.0587 3.0699 3.0727
3.1520 3.1586 3.1110 3.1063 3.1156 3.0232
2.9420 2.9243 2.8487 2.8244 2.8907 2.8748
2.8776 2.9140 2.7982 2.7506 2.7133 2.5919
2.5397 2.4743 2.4500 2.5042 2.5518 2.5518
2.5425 2.4939 2.3996 2.2913 2.1457 2.1299
2.2045 2.2428 2.2307 2.1831 2.1663 2.0944
2.0057 1.8806 1.7014 1.5772 1.4633 1.4036
1.4055 1.4400 1.4755 1.4727 1.4913 1.4960
1.5548 1.6407 1.6818 1.8069 1.9515 2.1102
2.3025 2.5070 2.7068 2.9355 3.2220 3.4554
3.7224 4.0109 4.3198 4.6391 4.9135 5.2039
5.3728 5.5185 5.6930 5.7285 5.7481 5.7957
5.8134 5.8424 5.8984 5.9927 6.1047 6.1980
6.2373 6.1915 6.1364 6.1271 5.9992 5.8835
5.9992 6.0020 5.9609 6.0319 5.9581 5.8190
5.6370 5.4419 5.2963 5.1796 5.1591 5.2011
5.2813 5.3514 5.3243 5.2683 5.1796 5.0302
4.9266 4.8977 4.9686 5.0984 5.2328 5.3915
5.5539 5.7294 5.8835 5.9236 5.8545 5.7322
5.6267 5.5689 5.5325 5.5175 5.4942 5.4447
5.3728 5.1843 4.9182 4.6036 4.2143 3.8792
3.5357 3.2351 2.9747 2.6414 2.2941 1.8685
1.4297 0.9816 0.5606 0.2078 -0.1460 -0.4280
-0.6940 -0.9470 -1.2056 -1.4996 -1.7582 -2.0289
-2.2614 -2.4210 -2.5153 -2.5190 -2.4378 -2.2800
-2.1419 -2.0439 -2.0336 -2.0597 -2.0336 -2.0187
-1.9738 -1.8796 -1.8264 -1.7797 -1.7209 -1.6789
-1.6144 -1.5444 -1.4623 -1.3465 -1.2336 -1.1626
-1.1010 -1.0842 -1.0954 -1.1533 -1.2000 -1.1822
-1.1785 -1.1085 -1.0497 -1.0011 -0.9759 -1.0319
-1.1430 -1.2943 -1.4548 -1.6406 -1.7526 -1.8301
-1.8870 -1.9132 -1.9262 -1.9281 -1.9393 -1.9085
-1.9533 -2.0579 -2.1325 -2.1447 -2.1465 -2.1634
-2.0831 -1.9748 -1.8226 -1.6275 -1.4278 -1.2214
-1.0450 -0.9106 -0.8135 -0.6950 -0.6268 -0.5773
-0.5213 -0.4420 -0.3132 -0.2469 -0.2179 -0.2403
-0.3010 -0.3822 -0.5437 -0.6875 -0.7631 -0.8462
-0.8994 -0.9423 -0.9554 -0.9741 -1.1253 -1.3073
-1.4791 -1.6742 -1.8348 -1.9496 -2.0681 -2.1503
-2.1942 -2.2436 -2.3286 -2.4238 -2.5330 -2.6703
-2.7319 -2.7095 -2.6525 -2.5834 -2.4808 -2.3426
-2.2334 -2.1718 -2.1036 -2.0672 -2.0980 -2.0616
-1.9608 -1.9094 -1.8534 -1.7834 -1.7321 -1.6583
-1.5762 -1.5155 -1.4903 -1.4660 -1.4716 -1.4819
-1.4772 -1.5491 -1.6854 -1.9244 -2.1624 -2.3379
-2.5228 -2.6423 -2.7235 -2.8196 -2.8831 -2.9102
-2.9382 -2.9858 -3.0418 -3.1015 -3.1575 -3.2238
-3.2938 -3.3050 -3.2994 -3.2789 -3.2416 -3.1809
-3.1071 -3.0801 -3.0063 -2.9251 -2.8346 -2.7477
-2.6647 -2.4658 -2.3146 -2.1820 -2.0626 -2.0131
-1.9141 -1.8749 -1.9067 -1.9337 -1.9431 -1.9645
-1.9515 -1.8534 -1.7545 -1.6294 -1.5361 -1.5193
-1.5333 -1.5883 -1.6948 -1.7946 -1.8394 -1.8273
-1.7554 -1.6938 -1.6313 -1.5678 -1.5538 -1.5827
-1.6677 -1.7760 -1.8273 -1.8142 -1.7778 -1.7013
-1.6126 -1.5137 -1.3951 -1.2859 -1.2056 -1.1337
-1.0917 -1.0880 -1.0301 -0.9536 -0.8705 -0.7267
-0.5895 -0.4691 -0.3683 -0.3356 -0.3029 -0.2786
-0.3160 -0.3309 -0.3141 -0.3356 -0.3430 -0.3150
-0.2646 -0.1619 -0.1115 -0.0929 -0.0425 -0.0639
-0.1265 -0.2021 -0.2777 -0.3384 -0.4056 -0.4980
-0.6175 -0.7099 -0.7977 -0.8527 -0.8826 -0.9078
-0.9797 -1.0899 -1.0955 -1.1029 -1.1365 -1.1431
-1.1179 -1.0385 -0.8873 -0.7715 -0.6595 -0.3972
-0.2506 -0.0733 0.1769 0.2675 0.4896 0.7398
0.9237 1.1795 1.3382 1.4605 1.5940 1.6173
1.6294 1.5585 1.3849 1.2616 1.0796 0.8714
0.7025 0.4999 0.2544 -0.0201 -0.2292 -0.4084
-0.5802 -0.7613 -0.9461 -1.1337 -1.3914 -1.6584
-2.0000 -2.2558 -2.4350 -2.5835 -2.5965 -2.5695
-2.3286 -2.0934 -1.8507 -1.6052 -1.4082 -1.0955
-0.8966 -0.6194 -0.3907 -0.1554 0.1032 0.2525
0.4131 0.4915 0.6371 0.6801 0.8163 0.9928
0.9965 1.1244 1.2663 1.3363 1.4315 1.5407
1.5510 1.5230 1.4782 1.4418 1.3503 1.2262
1.1841 1.0749 0.9918 0.9125 0.7781 0.6623
0.4756 0.2955 0.1330 -0.0649 -0.1825 -0.2338
-0.2843 -0.3692 -0.4924 -0.6446 -0.8649 -1.0721
-1.2392 -1.3727 -1.4549 -1.4819 -1.4446 -1.3765
-1.2775 -1.2215 -1.1767 -1.0936 -1.0273 -0.9265
-0.7996 -0.6465 -0.3515 -0.0023 0.3879 0.9293
1.3867 1.7022 1.9337 2.0411 2.0952 2.0327
1.9729 2.0700 2.2297 2.3482 2.5069 2.7748
2.9149 2.9979 3.0483 2.9877 2.9774 2.9849
3.0381 3.0633 3.1118 3.2378 3.3275 3.3872
3.3611 3.2761 3.1305 2.9550 2.7711 2.5368
2.3566 2.2278 2.0672 1.9477 1.8843 1.8217
1.7330 1.6500 1.5958 1.5650 1.5771 1.5809
1.6378 1.7274 1.8236 1.9431 2.0140 2.0784
2.1074 2.1195 2.1550 2.2091 2.2978 2.3725
2.4350 2.5004 2.5284 2.5405 2.5620 2.5545
2.5676 2.6385 2.7085 2.7561 2.7823 2.7711
2.6964 2.6217 2.5713 2.5489 2.6283 2.7870
3.0157 3.2640 3.4609 3.6476 3.8455 3.9977
4.0696 4.1163 4.1368 4.0929 4.0266 4.0192
4.0350 4.0229 4.0276 3.9417 3.7569 3.5272
3.2453 3.0315 2.8355 2.6609 2.5760 2.4621
2.3650 2.2838 2.1288 1.9141 1.6313 1.2905
0.9209 0.6072 0.3486 0.1638 0.0331 -0.1256
-0.2460 -0.3328 -0.4430 -0.5699 -0.7137 -0.8724
-0.9807 -1.0348 -0.9993 -0.9331 -0.8827 -0.7930
-0.8033 -0.8285 -0.8332 -0.8313 -0.8052 -0.8434
-0.7930 -0.6848 -0.6017 -0.4869 -0.3711 -0.3216
-0.3151 -0.2927 -0.3851 -0.5615 -0.7296 -0.9247
-1.1048 -1.2486 -1.2663 -1.1982 -1.1524 -1.0936
-1.0750 -1.0927 -1.1562 -1.2729 -1.3718 -1.4708
-1.5473 -1.5884 -1.5669 -1.4148 -1.1982 -0.9769
-0.7361 -0.5419 -0.4318 -0.3916 -0.4010 -0.4495
-0.5009 -0.5186 -0.4999 -0.4234 -0.3422 -0.2283
-0.0799 -0.0070 0.0275 0.0256 -0.0677 -0.2161
-0.3590 -0.5195 -0.6782 -0.8136 -0.9359 -1.0442
-1.1646 -1.2841 -1.4484 -1.6407 -1.8815 -2.1214
-2.2736 -2.4351 -2.5910 -2.7086 -2.8187 -2.9466
-3.0652 -3.1399 -3.2155 -3.2892 -3.3620 -3.4517
-3.4582 -3.4218 -3.4535 -3.4638 -3.4657 -3.5058
-3.4909 -3.4610 -3.4806 -3.4731 -3.4899 -3.4899
-3.4274 -3.3873 -3.3406 -3.2724 -3.2332 -3.2482
-3.1987 -3.1296 -3.0503 -2.9121 -2.7917 -2.6255
-2.4948 -2.4416 -2.3753 -2.3483 -2.3016 -2.2101
-2.1065 -1.9711 -1.8769 -1.7816 -1.6705 -1.5604
-1.5156 -1.5483 -1.5109 -1.4866 -1.4316 -1.3270
-1.2449 -1.1609 -1.1198 -1.1020 -1.1833 -1.3158
-1.4129 -1.5212 -1.5800 -1.6351 -1.7228 -1.7508
-1.8395 -1.9777 -2.1140 -2.2839 -2.3455 -2.4183
-2.4584 -2.3819 -2.3436 -2.2820 -2.1858 -2.0654
-1.9637 -1.8703 -1.6874 -1.5240 -1.3513 -1.1217
-0.9574 -0.8183 -0.7408 -0.7744 -0.7641 -0.7361
-0.7744 -0.7903 -0.7529 -0.7137 -0.6764 -0.6194
-0.5644 -0.5392 -0.5541 -0.5868 -0.6409 -0.6820
-0.6726 -0.6446 -0.5886 -0.4234 -0.3188 -0.3870
-0.2768 -0.2068 -0.3450 -0.2703 -0.2339 -0.2759
-0.2414 -0.2880 -0.1648 -0.0939 -0.0388 0.0433
-0.0472 0.0097 -0.0771 -0.1349 -0.1153 -0.2274
-0.2451 -0.2890 -0.2712 -0.2488 -0.2339 -0.2330
-0.3459 -0.4579 -0.5914 -0.7492 -0.9023 -1.0862
-1.2421 -1.3746 -1.5221 -1.6986 -1.9021 -2.1093
-2.3576 -2.5938 -2.8020 -2.9765 -3.0549 -3.0886
-3.1315 -3.1558 -3.1623 -3.1754 -3.2220 -3.2370
-3.1343 -3.0129 -2.8048 -2.5042 -2.2727 -2.0533
-1.8321 -1.6752 -1.5669 -1.4465 -1.3289 -1.2122
-1.0265 -0.7380 -0.5466 -0.4682 -0.2825 -0.1051
-0.0295 0.0023 0.1367 0.3486 0.4195 0.4933
0.6884 0.7547 0.7957 0.9666 0.9722 0.9040
0.9320 0.8938 0.8844 0.9227 0.9078 0.9162
0.8919 0.8592 0.7444 0.6464 0.6174 0.4662
0.4177 0.3579 0.2095 0.1610 0.1124 0.0769
0.0228 0.0237 0.1115 0.1451 0.1731 0.1759
0.2030 0.2235 0.2254 0.2916 0.3691 0.4522
0.5736 0.7892 1.0123 1.2214 1.4324 1.5883
1.6956 1.8095 1.9813 2.1736 2.4182 2.6525
2.8280 2.9456 2.9885 3.0025 2.9409 2.8364
2.8401 2.8382 2.7159 2.6394 2.5162 2.3593
2.1960 1.9822 1.8151 1.6209 1.4641 1.3680
1.3101 1.2541 1.2046 1.2223 1.2083 1.1439
1.0720 0.9880 0.9395 0.9367 0.9068 0.9218
0.9918 1.0702 1.2093 1.3232 1.3820 1.4193
1.3848 1.3652 1.3474 1.2933 1.2793 1.2699
1.3045 1.3502 1.3362 1.2830 1.2475 1.2027
1.0814 0.9852 0.9740 1.0636 1.1197 1.1943
1.3362 1.3185 1.2625 1.2830 1.3446 1.4081
1.5481 1.7806 2.0363 2.3631 2.6235 2.8056
2.9699 3.1351 3.3376 3.5682 3.8305 4.0667
4.2114 4.2543 4.1899 4.0499 3.8436 3.6448
3.5888 3.5813 3.6037 3.6093 3.5682 3.5337
3.3545 3.1127 2.8625 2.5311 2.2679 2.1222
1.9010 1.7022 1.5948 1.4641 1.3913 1.3045
1.1701 1.0384 0.9021 0.7705 0.6492 0.5222
0.3952 0.3374 0.3598 0.4120 0.4559 0.4830
0.4877 0.4793 0.4307 0.4438 0.5138 0.5857
0.6818 0.7220 0.7285 0.7276 0.7257 0.7425
0.7826 0.8153 0.8499 0.8433 0.7994 0.7668
0.7070 0.6099 0.4895 0.3626 0.1936 0.1348
0.1479 0.1665 0.2533 0.2459 0.2029 0.2039
0.1637 0.0536 -0.0855 -0.1938 -0.2591 -0.2479
-0.1415 -0.0006 0.1152 0.1413 0.0498 -0.0846
-0.2433 -0.3376 -0.2918 -0.1854 -0.0491 0.0461
0.0368 -0.0454 -0.1714 -0.2937 -0.3824 -0.4225
-0.3581 -0.2928 -0.2666 -0.2321 -0.2965 -0.3982
-0.4346 -0.4907 -0.5709 -0.5457 -0.4972 -0.4767
-0.3749 -0.2797 -0.1929 -0.0743 0.0722 0.2804
0.4671 0.6482 0.8312 0.9637 1.1122 1.2961
1.5304 1.7852 1.9775 2.1315 2.2772 2.3668
2.4107 2.5143 2.6394 2.7281 2.8083 2.8298
2.8205 2.7962 2.6851 2.4751 2.2417 2.0401
1.8459 1.7161 1.6312 1.5630 1.6106 1.5836
1.3847 1.1710 0.8685 0.5371 0.1796 -0.1854
-0.4496 -0.6335 -0.7026 -0.7184 -0.6587 -0.6195
-0.6895 -0.8258 -1.0713 -1.3766 -1.6267 -1.7873
-1.8368 -1.7584 -1.5679 -1.2925 -0.9938 -0.7278
-0.5756 -0.4897 -0.4888 -0.4813 -0.4067 -0.4300
-0.4244 -0.3329 -0.2461 -0.1807 0.0218 0.3420
0.6118 0.9348 1.2008 1.3782 1.5294 1.6396
1.7189 1.7497 1.8328 1.9252 1.9579 1.9934
1.9607 1.8225 1.6825 1.4977 1.2512 1.0477
0.8405 0.6463 0.5231 0.4232 0.2916 0.0704
-0.1724 -0.4393 -0.7875 -1.0741 -1.2337 -1.3178
-1.3504 -1.3448 -1.3140 -1.3066 -1.3346 -1.3887
-1.4148 -1.3542 -1.2636 -1.1637 -1.0489 -0.8753
-0.6736 -0.5159 -0.3619 -0.2284 -0.1556 -0.0781
-0.0043 0.0143 -0.0081 -0.0146 0.0134 0.0433
0.1254 0.2253 0.3075 0.4335 0.4960 0.4438
0.3177 0.0517 -0.1630 -0.3077 -0.5318 -0.6223
-0.5868 -0.5682 -0.6354 -0.6951 -0.7147 -0.8351
-0.9378 -1.0153 -1.0844 -1.0611 -1.0172 -1.0358
-1.0181 -0.9098 -0.8445 -0.8230 -0.8090 -0.8025
-0.8034 -0.8155 -0.8183 -0.8977 -0.8632 -0.7455
-0.6858 -0.4832 -0.4291 -0.3983 -0.3292 -0.5094
-0.5215 -0.4552 -0.4972 -0.3777 -0.1864 -0.1257
-0.0846 -0.0659 -0.1686 -0.2947 -0.4104 -0.5570
-0.7007 -0.8277 -0.9770 -1.0377 -1.0592 -1.1012
-1.1759 -1.2151 -1.2730 -1.5138 -1.7631 -1.9852
-2.0972 -2.2186 -2.2914 -2.3204 -2.4016 -2.4016
-2.7367 -2.6592 -2.5677 -3.0289 -3.0756 -3.1446
-3.1129 -3.0392 -3.0896 -3.0793 -3.1194 -3.1568
-3.3183 -3.3183 -3.3472 -3.3818 -3.2875 -3.2100
-3.0317 -2.8160 -2.5603 -2.2756 -2.0982 -2.0235
-1.9134 -1.8013 -1.6958 -1.5316 -1.3038 -0.9995
-0.7119 -0.4832 -0.3544 -0.3889 -0.4944 -0.6037
-0.6662 -0.6298 -0.5616 -0.5047 -0.5131 -0.5626
-0.5280 -0.5439 -0.6961 -0.8174 -0.9322 -1.0051
-0.9901 -0.9780 -0.9201 -0.9080 -0.9575 -1.0293
-1.2132 -1.4083 -1.5558 -1.7164 -1.8125 -1.8545
-1.9003 -1.8788 -1.8424 -1.8424 -1.8648 -1.9311
-2.0207 -2.1019 -2.1197 -2.0441 -1.9040 -1.7500
-1.6305 -1.5754 -1.6165 -1.6968 -1.7892 -1.9003
-1.9834 -2.0553 -2.0739 -2.0179 -1.8947 -1.6968
-1.5222 -1.3747 -1.2674 -1.2636 -1.2394 -1.1451
-1.0032 -0.7773 -0.5449 -0.3423 -0.1658 -0.0240
0.0517 0.1077 0.2029 0.2673 0.3065 0.3728
0.4895 0.6043 0.7350 0.9385 1.1149 1.2419
1.3604 1.4351 1.4892 1.5229 1.5499 1.5854
1.5966 1.6386 1.7208 1.8309 1.9681 2.0307
1.9625 1.8150 1.6843 1.6153 1.5714 1.5182
1.4164 1.2503 0.9908 0.6444 0.2748 -0.0296
-0.2405 -0.3582 -0.3834 -0.4048 -0.3759 -0.3824
-0.5523 -0.7110 -0.7717 -0.8137 -0.7978 -0.6494
-0.4786 -0.3190 -0.1397 0.0022 0.0946 0.1665
0.2411 0.2962 0.3970 0.5203 0.6612 0.8293
0.9198 1.0300 1.1018 1.1354 1.2447 1.3417
1.4678 1.5116 1.5060 1.5098 1.3604 1.1905
0.9907 0.7546 0.5417 0.3868 0.2215 0.0106
-0.0930 -0.2079 -0.2527 -0.2779 -0.2984 -0.3106
-0.3311 -0.3068 -0.3320 -0.2751 -0.3003 -0.2163
-0.0492 -0.1043 0.0619 0.3840 0.6145 0.8246
1.0001 1.1802 1.3371 1.4547 1.6461 1.8738
2.0465 2.2211 2.3826 2.5105 2.5721 2.5189
2.4563 2.3994 2.3751 2.3107 2.1688 2.0447
1.8374 1.7226 1.6629 1.4696 1.2923 1.1177
0.8320 0.4810 0.0955 -0.3143 -0.6149 -0.8931
-1.1143 -1.2347 -1.4140 -1.6800 -1.9321 -2.1682
-2.3895 -2.6060 -2.8768 -2.8021 -2.7545 -2.9300
-3.0028 -3.0793 -2.9832 -2.8982 -2.8562 -2.8245
-2.7685 -2.7134 -2.6173 -2.3531 -2.1337 -1.7594
-1.3402 -0.9752 -0.6130 -0.3442 -0.0959 0.1711
0.3998 0.5613 0.7378 0.9133 1.1345 1.3380
1.5742 1.7618 1.8552 1.9550 1.9261 1.8804
1.7721 1.6713 1.5536 1.4565 1.4678 1.3763
1.3688 1.3063 1.1084 0.8694 0.5314 0.2094
-0.0865 -0.3022 -0.4385 -0.4982 -0.5225 -0.5206
-0.4431 -0.4245 -0.3563 -0.2200 -0.0791 0.1235
0.3205 0.5865 0.8619 1.1055 1.3940 1.6432
1.8561 2.0708 2.2388 2.3452 2.4545 2.5721
2.7074 2.8475 2.9782 3.1098 3.1770 3.1891
3.1593 3.1135 3.0930 3.0304 2.9436 2.8223
2.6468 2.4769 2.2855 2.1455 2.0204 1.8841
1.8346 1.7973 1.7403 1.6638 1.5658 1.4537
1.3305 1.2176 1.1438 1.1177 1.1130 1.1709
1.2717 1.3875 1.5256 1.6834 1.8281 1.9597
2.1604 2.3639 2.5655 2.7233 2.8344 3.0332
3.1695 3.3487 3.5896 3.7231 3.8230 3.7660
3.6493 3.5308 3.3655 3.3170 3.2806 3.1844
3.0612 2.8633 2.5469 2.1828 1.7963 1.3931
1.0869 0.8666 0.7331 0.6640 0.6416 0.5958
0.4512 0.2560 -0.0035 -0.3237 -0.5748 -0.6887
-0.7092 -0.6457 -0.5552 -0.4898 -0.4525 -0.4459
-0.4534 -0.4861 -0.5402 -0.5524 -0.5514 -0.5580
-0.5580 -0.5748 -0.5645 -0.5617 -0.5934 -0.6989
-0.8231 -0.9846 -1.1937 -1.3328 -1.5017 -1.6567
-1.7930 -1.9078 -1.9396 -1.9349 -1.9041 -1.8863
-1.9237 -2.0264 -2.1403 -2.2803 -2.3783 -2.3951
-2.3886 -2.3428 -2.3242 -2.3335 -2.3372 -2.3382
-2.3531 -2.3428 -2.2831 -2.1963 -2.1048 -1.9918
-1.8462 -1.7491 -1.6427 -1.5111 -1.3533 -1.1862
-1.0723 -0.9977 -0.9360 -0.8436 -0.7895 -0.6719
-0.5533 -0.4702 -0.2733 -0.1986 -0.1482 -0.0408
-0.0884 -0.1734 -0.1818 -0.1192 -0.0063 0.1300
0.2775 0.4315 0.4810 0.4679 0.5062 0.5249
0.5940 0.6929 0.7723 0.8535 0.9058 0.9898
1.0196 0.9907 0.9786 0.9664 0.9543 0.9347
0.8721 0.7489 0.6705 0.6285 0.6098 0.6406
0.6873 0.8255 0.9730 1.0859 1.1653 1.1615
1.1270 1.0346 0.9468 0.9011 0.8712 0.8656
0.8777 0.8404 0.7209 0.5370 0.3587 0.1823
0.0096 -0.1276 -0.2546 -0.3283 -0.3797 -0.4301
-0.5673 -0.7139 -0.8940 -1.0658 -1.1862 -1.3328
-1.4280 -1.4868 -1.4738 -1.4476 -1.3981 -1.3645
-1.3935 -1.4663 -1.5718 -1.6558 -1.7025 -1.6791
-1.5998 -1.4915 -1.3785 -1.2843 -1.2357 -1.2161
-1.2198 -1.2656 -1.3113 -1.3356 -1.3981 -1.5027
-1.6278 -1.7939 -1.9937 -2.1748 -2.2906 -2.3550
-2.3849 -2.4418 -2.5613 -2.7461 -2.9944 -3.2521
-3.5321 -3.7328 -3.8729 -4.0082 -4.0689 -4.1660
-4.3004 -4.4348 -4.5412 -4.5851 -4.5655 -4.4806
-4.4096 -4.3555 -4.3209 -4.2836 -4.1697 -3.9559
-3.6964 -3.4145 -3.1307 -2.9366 -2.7900 -2.6630
-2.5557 -2.4306 -2.2878 -2.1141 -1.9293 -1.7435
-1.5466 -1.3645 -1.2329 -1.1778 -1.1965 -1.2665
-1.3543 -1.4159 -1.4355 -1.3897 -1.2843 -1.1825
-1.1134 -1.0929 -1.1013 -1.0892 -1.1069 -1.1050
-1.0434 -1.0079 -0.9809 -0.9762 -0.9473 -0.8651
-0.7895 -0.6719 -0.5011 -0.3498 -0.2453 -0.1426
-0.0362 0.0469 0.0926 0.1347 0.2233 0.3662
0.5323 0.7256 0.9328 1.0635 1.1438 1.1960
1.2315 1.2717 1.2679 1.2549 1.2325 1.1895
1.1494 1.0990 1.1242 1.1540 1.1288 1.1195
1.0952 1.1148 1.0999 1.0738 1.1102 1.1120
1.1083 1.1260 1.1970 1.3006 1.4350 1.5853
1.6908 1.7515 1.8103 1.8383 1.8271 1.8579
1.9242 2.0493 2.1697 2.2630 2.3807 2.4525
2.5011 2.5440 2.5197 2.3508 2.1641 2.0623
1.8607 1.7067 1.7412 1.6805 1.5312 1.4528
1.2885 1.1270 0.9981 0.7946 0.6481 0.4530
0.2327 0.0124 -0.1715 -0.2836 -0.4208 -0.4451
-0.4497 -0.5020 -0.5384 -0.5991 -0.6682 -0.7176
-0.6840 -0.5552 -0.3237 -0.0044 0.2663 0.4530
0.6154 0.7470 0.8982 1.0812 1.3015 1.5396
1.7253 1.8420 1.8868 1.9410 1.9848 2.0679
2.2360 2.3928 2.5655 2.6710 2.7148 2.7316
2.6710 2.6234 2.5748 2.5328 2.5020 2.4292
2.3386 2.2033 2.0147 1.8243 1.6348 1.4434
1.3193 1.2716 1.2548 1.2100 1.0784 0.8637
0.6098 0.3568 0.1542 0.0581 0.0161 0.0207
0.0534 0.0684 0.1449 0.2523 0.3437 0.4530
0.5332 0.5360 0.5006 0.4679 0.4754 0.5584
0.6826 0.8366 0.9860 1.0915 1.2072 1.3006
1.2894 1.2539 1.2175 1.1727 1.1988 1.2119
1.1764 1.1129 1.0411 0.9935 0.9178 0.8646
0.8954 0.9384 0.9664 0.9860 0.9813 0.8870
0.7218 0.5734 0.4315 0.3213 0.2943 0.3960
0.5780 0.7330 0.8441 0.8030 0.6425 0.5052
0.3652 0.3073 0.4025 0.5734 0.7918 1.0065
1.1493 1.2334 1.3043 1.3370 1.3258 1.3118
1.3034 1.3211 1.3286 1.3211 1.3678 1.4471
1.5330 1.5993 1.6301 1.6385 1.5591 1.4415
1.3202 1.1624 1.0709 1.0243 0.9860 1.0308
1.0803 1.1297 1.1988 1.2231 1.2502 1.2688
1.2567 1.2334 1.2250 1.2679 1.3379 1.3650
1.3547 1.3575 1.3874 1.5395 1.8121 2.1463
2.4917 2.7531 2.9594 3.0630 3.1013 3.1704
3.2245 3.2647 3.2787 3.2338 3.1237 2.9930
2.9062 2.8716 2.8586 2.7708 2.6513 2.5421
2.3377 2.0884 1.8709 1.6497 1.4863 1.3958
1.2744 1.2072 1.1727 1.0971 1.0280 0.9440
0.8945 0.8609 0.7974 0.6910 0.5463 0.4119
0.3363 0.3531 0.4585 0.5780 0.6266 0.6163
0.5201 0.3820 0.2532 0.1439 0.0394 -0.0596
-0.0530 -0.0502 -0.0969 -0.1622 -0.2976 -0.4778
-0.6654 -0.7998 -0.8708 -0.9408 -1.0621 -1.1872
-1.3077 -1.4421 -1.5970 -1.7511 -1.9620 -2.2850
-2.5399 -2.8115 -3.1270 -3.2829 -3.3838 -3.4911
-3.6087 -3.8085 -4.1184 -4.3509 -4.4741 -4.6141
-4.6757 -4.7709 -4.9110 -5.0090 -5.0697 -5.1229
-5.1070 -5.0314 -5.0389 -4.9661 -4.8531 -4.7709
-4.6991 -4.6365 -4.5338 -4.3994 -4.2641 -4.2052
-4.1698 -4.1800 -4.2389 -4.2631 -4.2351 -4.0867
-3.8346 -3.5770 -3.3576 -3.2671 -3.2699 -3.3147
-3.4248 -3.4594 -3.5089 -3.5789 -3.5033 -3.4267
-3.3642 -3.2092 -3.0766 -3.0001 -2.8946 -2.8843
-3.0010 -3.1457 -3.3474 -3.5266 -3.5835 -3.5499
-3.4155 -3.1653 -2.8862 -2.6500 -2.5081 -2.4652
-2.4568 -2.4671 -2.4624 -2.4092 -2.2878 -2.0899
-1.8696 -1.5886 -1.2610 -1.0089 -0.7896 -0.5842
-0.3900 -0.2136 -0.0941 -0.0166 0.0356 0.0086
-0.1025 -0.1539 -0.1389 -0.1025 -0.0437 0.0282
0.0104 -0.0922 -0.1884 -0.3154 -0.3844 -0.4432
-0.5385 -0.5917 -0.6122 -0.5851 -0.5637 -0.6038
-0.6467 -0.6757 -0.7130 -0.7130 -0.6552 -0.5562
-0.4479 -0.3555 -0.2818 -0.2659 -0.3266 -0.3835
-0.3984 -0.3574 -0.2416 -0.0736 0.1542 0.4025
0.5929 0.6910 0.7003 0.6742 0.6191 0.5556
0.5341 0.5939 0.7386 0.8898 1.0336 1.1260
1.1148 0.9850 0.7199 0.4408 0.2401 0.1523
0.1850 0.2382 0.2718 0.2727 0.1617 -0.0129
-0.1996 -0.3620 -0.4199 -0.4059 -0.3228 -0.1791
-0.0073 0.0506 0.0114 -0.0306 -0.1147 -0.1212
-0.0773 0.0020 0.1280 0.2102 0.2811 0.3288
0.3222 0.2513 0.1953 0.1897 0.2195 0.3344
0.4641 0.5435 0.5089 0.3605 0.1794 0.0664
0.0282 0.0235 0.0310 -0.0138 -0.0484 -0.1175
-0.2304 -0.3042 -0.3471 -0.3490 -0.3051 -0.2174
-0.1819 -0.2360 -0.3107 -0.4106 -0.5226 -0.5254
-0.4367 -0.2715 -0.0251 0.2279 0.5098 0.6928
0.7563 0.7320 0.6377 0.5855 0.5425 0.5593
0.6219 0.7451 0.8898 0.9831 1.1073 1.1306
1.0802 1.0158 0.8776 0.7647 0.7124 0.7171
0.7115 0.7124 0.7936 0.8730 0.9635 1.0970
1.2146 1.2473 1.1969 1.1297 0.9878 0.8842
0.8907 0.9421 1.0914 1.2473 1.4135 1.5470
1.5694 1.5152 1.3519 1.2034 1.0914 1.0475
1.0961 1.1409 1.2165 1.2706 1.2725 1.2725
1.2510 1.2389 1.2314 1.2072 1.1428 1.0429
1.0111 0.9775 0.9915 1.0886 1.1091 1.0811
0.9775 0.7815 0.5210 0.2354 -0.0101 -0.1408
-0.0783 0.0253 0.0991 0.2139 0.2998 0.3045
0.2737 0.2176 0.0944 -0.0148 0.0001 0.0487
0.0860 0.1700 0.2531 0.3493 0.4669 0.5481
0.5752 0.6153 0.6825 0.7544 0.8636 0.9766
1.0522 1.1129 1.1838 1.2314 1.3089 1.3817
1.3696 1.3304 1.3145 1.3378 1.3341 1.2809
1.3033 1.4051 1.4312 1.4013 1.3350 1.2380
1.1213 0.9635 0.8720 0.8291 0.8403 0.8935
0.9234 0.9560 0.9187 0.8804 0.8534 0.8328
0.8767 0.8608 0.8898 0.8972 0.8860 0.9355
0.9131 0.9206 0.9094 0.9364 0.9756 0.9598
0.9206 0.8674 0.8907 0.9756 1.0587 1.0363
1.1623 1.3425 1.2986 1.2361 1.2015 1.1287
1.0279 0.9588 0.9523 0.9896 0.9971 0.9299
0.7749 0.5976 0.3782 0.1784 0.1177 0.0571
0.0029 -0.0606 -0.1268 -0.2136 -0.3509 -0.4312
-0.4825 -0.4900 -0.4638 -0.4265 -0.3705 -0.2986
-0.2529 -0.2753 -0.3042 -0.3490 -0.3751 -0.3378
-0.2333 -0.2529 -0.4274 -0.4732 -0.4442 -0.4125
-0.3425 -0.2239 -0.0811 0.0244 0.0953 0.0048
-0.1698 -0.2538 -0.2631 -0.2165 -0.1352 -0.0484
-0.0195 -0.0718 -0.1856 -0.3145 -0.4302 -0.5142
-0.5646 -0.5964 -0.6795 -0.8102 -0.9334 -1.1107
-1.2657 -1.3675 -1.4235 -1.4309 -1.4309 -1.4197
-1.4487 -1.5103 -1.6372 -1.8351 -1.9350 -1.8548
-1.7269 -1.6372 -1.6120 -1.6998 -1.8062 -1.8650
-1.8734 -1.8398 -1.7829 -1.6821 -1.5775 -1.5122
-1.4730 -1.5364 -1.6550 -1.7502 -1.8482 -1.8529
-1.7502 -1.6382 -1.5224 -1.3889 -1.2797 -1.2032
-1.1602 -1.1061 -1.0193 -0.9614 -0.8755 -0.7560
-0.6104 -0.4097 -0.1987 -0.0260 0.0524 0.1009
0.1849 0.2895 0.4202 0.5303 0.5910 0.6498
0.7236 0.7992 0.9037 0.9766 0.9915 1.0232
1.0316 1.0064 0.9990 1.0512 1.1885 1.3397
1.4536 1.5395 1.5768 1.5927 1.5889 1.6197
1.7037 1.7887 1.8923 1.9726 2.0221 2.0445
2.0986 2.2405 2.3563 2.3693 2.3143 2.2704
2.2517 2.2368 2.2069 2.1714 2.1808 2.1948
2.1789 2.1397 2.0921 2.0501 2.0025 1.9110
1.7495 1.5815 1.4610 1.3583 1.2799 1.2491
1.2529 1.2351 1.1558 1.0428 0.8888 0.7376
0.6498 0.5751 0.5723 0.6022 0.6339 0.6993
0.7189 0.7534 0.7777 0.7889 0.8459 0.9196
1.0167 1.1184 1.2715 1.3546 1.3471 1.3509
1.2687 1.2743 1.3518 1.4573 1.7252 1.8932
2.0445 2.1425 1.9885 1.9128 1.8055 1.6272
1.6057 1.6188 1.6421 1.6365 1.6188 1.5992
1.5254 1.4638 1.3443 1.1539 1.0783 0.9999
0.7814 0.6209 0.5229 0.3987 0.2801 0.1999
0.1579 0.1121 0.0776 0.0598 0.0589 0.0710
0.0262 -0.0344 -0.0671 -0.0951 -0.0400 -0.0382
-0.1642 -0.1502 -0.1129 -0.1941 -0.1726 -0.2174
-0.4405 -0.5693 -0.6179 -0.7402 -0.8251 -0.8177
-0.9325 -1.0930 -1.1612 -1.3675 -1.6587 -1.7773
-1.8688 -2.0340 -2.1404 -2.1880 -2.2142 -2.2571
-2.3626 -2.4933 -2.5857 -2.5988 -2.5605 -2.5138
-2.4401 -2.3215 -2.1899 -2.0816 -1.9911 -1.9285
-1.8632 -1.7418 -1.5831 -1.4263 -1.2713 -1.0697
-0.8531 -0.6954 -0.5740 -0.4349 -0.2893 -0.1679
-0.0429 0.1074 0.2811 0.4080 0.4771 0.5172
0.4715 0.3968 0.2932 0.1728 0.1466 0.0869
-0.0158 -0.1343 -0.3145 -0.4489 -0.5367 -0.6319
-0.7729 -0.8662 -0.9633 -1.1780 -1.3666 -1.5365
-1.7148 -1.8688 -2.0256 -2.1404 -2.1824 -2.2142
-2.2105 -2.1731 -2.1703 -2.2665 -2.4224 -2.4756
-2.4420 -2.3720 -2.2515 -2.1040 -1.9369 -1.7680
-1.6448 -1.5785 -1.4879 -1.4244 -1.3862 -1.3040
-1.2331 -1.1313 -1.0174 -0.8802 -0.7141 -0.5703
-0.4228 -0.3089 -0.2258 -0.1726 -0.1521 -0.0970
0.0094 0.1700 0.3361 0.4603 0.5359 0.5555
0.5564 0.5294 0.5163 0.5602 0.6293 0.7002
0.7609 0.8206 0.8318 0.8374 0.8234 0.7179
0.6423 0.6087 0.5658 0.5667 0.5816 0.5676
0.5340 0.4771 0.3865 0.2811 0.2260 0.1774
0.1018 0.0505 0.0374 0.0225 -0.0727 -0.2370
-0.3799 -0.4555 -0.4620 -0.4013 -0.3127 -0.2408
-0.2268 -0.2641 -0.2987 -0.3472 -0.4013 -0.4200
-0.3752 -0.2772 -0.1652 -0.0662 -0.0009 -0.0177
-0.0868 -0.1512 -0.2100 -0.2352 -0.2454 -0.2464
-0.2165 -0.1652 -0.1036 -0.0345 -0.0055 0.0057
-0.0279 -0.1745 -0.2688 -0.3808 -0.5488 -0.5479
-0.4181 -0.3080 -0.3108 -0.3435 -0.3491 -0.4387
-0.5927 -0.7626 -0.8942 -0.9390 -0.8812 -0.7654
-0.6497 -0.5115 -0.4620 -0.4396 -0.4228 -0.5171
-0.6394 -0.7803 -0.7972 -0.7318 -0.6123 -0.4648
-0.4686 -0.4191 -0.3323 -0.3033 -0.2679 -0.2221
-0.1428 -0.0709 0.0029 0.0477 0.0159 -0.0018
0.0141 -0.0074 -0.0448 -0.0606 0.0057 0.1700
0.2782 0.3333 0.4547 0.4883 0.4817 0.5265
0.5667 0.6292 0.6292 0.6040 0.5275 0.4621
0.4407 0.4173 0.4136 0.3847 0.4201 0.4080
0.3819 0.3361 0.1924 0.0859 -0.0289 -0.1484
-0.2819 -0.4228 -0.5022 -0.5386 -0.5685 -0.6562
-0.7906 -0.9026 -1.0072 -1.1108 -1.1612 -1.1771
-1.0912 -0.9288 -0.8056 -0.6945 -0.6590 -0.7047
-0.7990 -0.9148 -0.9867 -1.0203 -0.9979 -0.9615
-0.8793 -0.8093 -0.8018 -0.8037 -0.8718 -0.9512
-1.0053 -1.0053 -0.9605 -0.8840 -0.8056 -0.7953
-0.8737 -1.0221 -1.2032 -1.3685 -1.4198 -1.4067
-1.3582 -1.2060 -1.0585 -0.9680 -0.9139 -1.0025
-1.1444 -1.2789 -1.3918 -1.3535 -1.2368 -1.0791
-0.8840 -0.7038 -0.5666 -0.4835 -0.4322 -0.4378
-0.4378 -0.3734 -0.2725 -0.1222 0.1382 0.4481
0.6983 0.9251 1.0820 1.1679 1.2164 1.2229
1.2976 1.3928 1.4946 1.5478 1.4936 1.3966
1.2173 1.0829 1.0456 1.1081 1.2621 1.3956
1.4946 1.5114 1.4479 1.3601 1.2892 1.2061
1.1006 1.0194 0.9942 1.1062 1.3191 1.5310
1.7233 1.8633 1.9100 1.8978 1.9081 1.9520
2.0267 2.1163 2.1770 2.2442 2.3086 2.3133
2.2983 2.3170 2.3543 2.4187 2.5056 2.5616
2.5550 2.4813 2.3879 2.2367 2.0519 1.9296
1.8838 1.9053 1.9118 1.8596 1.7354 1.5123
1.2705 1.0801 0.9018 0.7618 0.7048 0.7198
0.7459 0.7636 0.7590 0.6796 0.5807 0.4780
0.3893 0.3641 0.4220 0.5545 0.6609 0.6927
0.6796 0.6395 0.6003 0.5816 0.6180 0.6899
0.7590 0.8327 0.8934 0.9429 1.0082 1.1156
1.1865 1.1650 1.0997 0.9849 0.8869 0.8420
0.7534 0.7076 0.6955 0.6525 0.6283 0.5601
0.4434 0.2763 0.1522 0.0458 -0.0420 -0.0392
-0.0635 -0.1335 -0.2707 -0.4527 -0.6105 -0.7879
-0.9176 -1.0035 -1.1090 -1.1734 -1.2219 -1.2331
-1.2387 -1.2555 -1.2499 -1.2219 -1.1893 -1.2266
-1.2275 -1.1687 -1.0922 -1.0455 -0.9839 -0.8532
-0.7869 -0.6824 -0.5844 -0.5582 -0.4593 -0.3921
-0.3183 -0.1839 -0.0943 -0.0448 -0.0131 -0.0252
-0.0317 -0.0196 -0.0896 -0.0933 -0.0420 -0.0719
-0.0607 -0.0821 -0.1381 -0.1736 -0.2744 -0.3351
-0.3295 -0.2931 -0.2558 -0.2576 -0.2222 -0.1521
-0.0588 0.0420 0.0934 0.1298 0.1680 0.1764
0.1755 0.2231 0.3267 0.4612 0.6208 0.7636
0.8756 0.9494 0.9625 0.9802 1.0362 1.1006
1.1576 1.2182 1.2509 1.2406 1.1940 1.1062
1.0381 1.0026 0.9914 1.0073 1.0334 1.0315
0.9923 0.8794 0.7263 0.6021 0.4882 0.4285
0.3837 0.3174 0.2707 0.2278 0.1802 0.1120
0.0532 0.0047 -0.0971 -0.1363 -0.0952 -0.0616
-0.0551 -0.1354 -0.2334 -0.3305 -0.4490 -0.5032
-0.4789 -0.3995 -0.2679 -0.2194 -0.2950 -0.3211
-0.3258 -0.3762 -0.4275 -0.5069 -0.6002 -0.6404
-0.6310 -0.6002 -0.5405 -0.4938 -0.4761 -0.5237
-0.6534 -0.7804 -0.9316 -1.0409 -1.0857 -1.1267
-1.1230 -1.1333 -1.1958 -1.2649 -1.3620 -1.4945
-1.6038 -1.7223 -1.8222 -1.9015 -1.9940 -2.0742
-2.1993 -2.2703 -2.2581 -2.2133 -2.1209 -2.0360
-1.9800 -1.9538 -1.9781 -1.9921 -1.9492 -1.8782
-1.7139 -1.5571 -1.4544 -1.2742 -1.1846 -1.1323
-1.0315 -0.9736 -0.8868 -0.8374 -0.7029 -0.5312
-0.3809 -0.1503 -0.0187 0.0532 0.0961 0.0924
0.1456 0.2530 0.2968 0.3277 0.3921 0.4639
0.6142 0.7627 0.8233 0.7692 0.6674 0.5190
0.3052 0.2455 0.2828 0.3108 0.4854 0.6142
0.5582 0.5293 0.4602 0.3127 0.2203 0.1802
0.1858 0.2474 0.3276 0.3893 0.4154 0.4378
0.4957 0.5405 0.5788 0.6366 0.6460 0.6254
0.6124 0.5760 0.5909 0.6357 0.6786 0.7673
0.8373 0.8971 0.9484 0.9690 0.9923 0.9942
0.9867 0.9587 0.9176 0.9363 1.0026 1.0950
1.1939 1.2602 1.2826 1.2667 1.2219 1.1883
1.2145 1.3256 1.4506 1.6159 1.7587 1.7998
1.9417 1.9631 1.9547 2.0976 2.1078 2.2292
2.3795 2.4056 2.5410 2.5830 2.5905 2.6633
2.6465 2.7193 2.7650 2.7697 2.8630 2.8490
2.8621 2.8229 2.7501 2.7678 2.7239 2.6950
2.6978 2.6819 2.6045 2.5046 2.4131 2.3216
2.2217 2.1312 2.0089 1.8604 1.7326 1.6047
1.5123 1.3900 1.2499 1.0446 0.8168 0.5956
0.3594 0.2025 0.0616 -0.0327 -0.0868 -0.1074
-0.1242 -0.2082 -0.3324 -0.5639 -0.7823 -0.9317
-0.9998 -0.9186 -0.8691 -0.8495 -0.8402 -0.8663
-0.9345 -1.0698 -1.1492 -1.1688 -1.1716 -1.1576
-1.1436 -1.1286 -1.1081 -1.0932 -1.0334 -0.8962
-0.7226 -0.5349 -0.4266 -0.4080 -0.4658 -0.5760
-0.6217 -0.6068 -0.5396 -0.4210 -0.3286 -0.2894
-0.3370 -0.4490 -0.5396 -0.5844 -0.5601 -0.5041
-0.4771 -0.4929 -0.6003 -0.7291 -0.8505 -1.0353
-1.2061 -1.3657 -1.5095 -1.5889 -1.6449 -1.6514
-1.6663 -1.7046 -1.7616 -1.8876 -2.0052 -2.0537
-2.0267 -1.9884 -1.9501 -1.9380 -1.9697 -1.9679
-1.9921 -2.0080 -2.0052 -2.0071 -2.0033 -2.0556
-2.1051 -2.1443 -2.1294 -2.0463 -1.9576 -1.8558
-1.7653 -1.7037 -1.6803 -1.6962 -1.8008 -1.9324
-2.0276 -2.0752 -2.0304 -1.9399 -1.7989 -1.6598
-1.5711 -1.4974 -1.4582 -1.4740 -1.4554 -1.3975
-1.3153 -1.1613 -1.0269 -0.9121 -0.7907 -0.7132
-0.6722 -0.6600 -0.6572 -0.6376 -0.5844 -0.5013
-0.4183 -0.3100 -0.1830 -0.0775 0.0364 0.0728
0.0056 -0.0757 -0.1979 -0.3314 -0.4033 -0.4024
-0.3492 -0.3128 -0.2978 -0.3296 -0.4211 -0.5629
-0.7291 -0.8813 -1.0624 -1.2024 -1.2939 -1.3116
-1.2593 -1.2276 -1.1557 -1.1221 -1.1361 -1.2005
-1.3331 -1.4423 -1.5357 -1.5543 -1.5422 -1.5618
-1.5469 -1.5515 -1.6327 -1.6981 -1.7364 -1.7205
-1.6131 -1.5198 -1.4740 -1.5263 -1.6271 -1.7494
-1.8969 -1.9688 -2.0220 -1.9791 -1.9100 -1.9287
-1.9025 -1.9445 -2.0183 -2.0715 -2.1620 -2.2143
-2.2582 -2.2526 -2.1471 -2.0472 -1.9567 -1.8335
-1.8045 -1.9231 -2.0771 -2.2321 -2.3721 -2.4533
-2.4300 -2.3179 -2.1882 -2.0864 -2.0435 -2.0472
-2.1378 -2.2386 -2.2974 -2.3684 -2.3450 -2.2367
-2.0930 -1.9249 -1.8064 -1.7308 -1.6701 -1.6057
-1.4946 -1.3471 -1.1781 -0.9886 -0.8337 -0.6544
-0.4687 -0.3221 -0.1382 0.0018 0.1297 0.2893
0.3827 0.5208 0.7047 0.8289 0.9745 1.1043
1.1229 1.1650 1.2564 1.2443 1.1603 1.1323
1.1425 1.0669 1.0072 1.0483 1.0660 1.1155
1.1734 1.1509 1.1388 1.0865 0.9446 0.8336
0.7617 0.7234 0.7467 0.7729 0.8270 0.9045
0.9129 0.8840 0.8849 0.8784 0.8522 0.8942
0.9400 1.0277 1.1229 1.1416 1.2284 1.2452
1.2882 1.3684 1.3768 1.4179 1.3918 1.3759
1.3507 1.3152 1.3059 1.2527 1.2042 1.1901
1.2182 1.2079 1.1873 1.1425 1.0557 0.9736
0.8279 0.7197 0.7085 0.7243 0.7533 0.8205
0.9120 0.9960 1.0286 0.9512 0.8868 0.8774
0.8494 0.8447 0.8550 0.9054 1.0128 1.0968
1.1397 1.1444 1.1192 1.0763 1.0389 1.0090
1.0370 1.0893 1.1229 1.1752 1.1687 1.1397
1.0613 0.9400 0.8774 0.8027 0.7663 0.7523
0.7514 0.7962 0.7645 0.6935 0.6328 0.5115
0.4051 0.3743 0.3481 0.3799 0.4424 0.5451
0.6767 0.7383 0.7953 0.8830 0.9512 0.8783
0.8485 0.9362 0.9838 1.1313 1.2928 1.4235
1.5934 1.5906 1.6009 1.7120 1.7101 1.8081
1.9444 1.9463 1.9845 2.0452 2.0303 1.9407
1.8287 1.7624 1.6793 1.5523 1.5047 1.5346
1.5271 1.5001 1.4356 1.3050 1.1323 0.9241
0.7439 0.6711 0.6860 0.6767 0.6982 0.7486
0.7831 0.7682 0.6552 0.5255 0.4545 0.4303
0.3742 0.3649 0.4181 0.5339 0.6515 0.6888
0.7402 0.7056 0.6730 0.7150 0.6991 0.7084
0.7262 0.7607 0.8475 0.9157 0.9484 0.9568
0.9297 0.8447 0.7131 0.5927 0.5516 0.5871
0.6282 0.6487 0.6991 0.7532 0.7234 0.6235
0.4844 0.3416 0.2174 0.1325 0.1259 0.1577
0.2398 0.2996 0.2874 0.2352 0.1082 0.0279
-0.0356 -0.1551 -0.2297 -0.2465 -0.1999 -0.1644
-0.1551 -0.0841 -0.0673 -0.1644 -0.2596 -0.3511
-0.4006 -0.3726 -0.3427 -0.2745 -0.1933 -0.1569
-0.0757 -0.0104 0.0018 0.0111 -0.0402 -0.1355
-0.2279 -0.3016 -0.3492 -0.3576 -0.3651 -0.3847
-0.4416 -0.5415 -0.6125 -0.7114 -0.8048 -0.8365
-0.8664 -0.8505 -0.8281 -0.8627 -0.9383 -1.0484
-1.1082 -1.1175 -1.0960 -1.0354 -1.0027 -0.9607
-0.9215 -0.9392 -0.9831 -1.0708 -1.1511 -1.1903
-1.2398 -1.2193 -1.1576 -1.0848 -0.9700 -0.9159
-0.9299 -0.9625 -1.0251 -1.0624 -1.0690 -1.0802
-1.0475 -1.0008 -0.9756 -0.9495 -0.9345 -0.9457
-0.9215 -0.8580 -0.7973 -0.7282 -0.6956 -0.6181
-0.5509 -0.5565 -0.5322 -0.5434 -0.4986 -0.3856
-0.3175 -0.2587 -0.2073 -0.1355 -0.0869 -0.0776
-0.0935 -0.1467 -0.1971 -0.2335 -0.2550 -0.2494
-0.2129 -0.2027 -0.2410 -0.3072 -0.3828 -0.4613
-0.5677 -0.6946 -0.8356 -0.9990 -1.1595 -1.2753
-1.3677 -1.4237 -1.4676 -1.5376 -1.5759 -1.5871
-1.6281 -1.6627 -1.6599 -1.6608 -1.6356 -1.5983
-1.5339 -1.4536 -1.3910 -1.3023 -1.2575 -1.2202
-1.1689 -1.1138 -0.9990 -0.9009 -0.7506 -0.5966
-0.4939 -0.2998 -0.2158 -0.2092 -0.1000 -0.0029
0.0708 0.1922 0.3976 0.5777 0.7019 0.8279
0.8979 0.9493 0.9941 0.9810 0.9661 0.9950
1.0594 1.0911 1.1434 1.2368 1.2536 1.2498
1.2358 1.2330 1.2396 1.2153 1.1668 1.0641
0.9763 0.9044 0.8708 0.8764 0.8764 0.8484
0.7831 0.7513 0.7420 0.7317 0.7177 0.7224
0.7065 0.6739 0.6860 0.6701 0.6459 0.6841
0.7560 0.8335 0.8886 0.8970 0.9502 1.0417
1.1033 1.2060 1.2984 1.3581 1.4188 1.4561
1.5187 1.5878 1.6288 1.6335 1.6438 1.6671
1.6503 1.6400 1.6643 1.6830 1.6727 1.6550
1.5887 1.4944 1.3861 1.2610 1.1957 1.1854
1.1929 1.1966 1.2116 1.1602 1.0407 0.9100
0.7812 0.6795 0.6141 0.6365 0.7000 0.7177
0.6524 0.5870 0.4890 0.3369 0.2613 0.2155
0.2332 0.2790 0.3023 0.3565 0.3434 0.3341
0.2603 0.1362 0.2547 0.3658 0.3322 0.3490
0.3826 0.4190 0.3994 0.3434 0.3649 0.3966
0.4283 0.4386 0.3929 0.4031 0.4171 0.4806
0.5506 0.5534 0.6552 0.7420 0.7420 0.7336
0.7756 0.8708 0.8746 0.8774 0.9184 0.8391
0.8083 0.8615 0.8064 0.8176 0.9278 0.9922
1.1509 1.2928 1.3441 1.3656 1.3002 1.2620
1.2582 1.2872 1.3292 1.3712 1.4636 1.5523
1.5355 1.4991 1.4319 1.2993 1.2526 1.1882
1.1705 1.1303 1.0622 1.1210 1.0771 1.0426
1.0043 0.8232 0.6785 0.5562 0.4955 0.4619
0.4227 0.4675 0.5021 0.5338 0.5590 0.4694
0.2911 0.0969 -0.1215 -0.2522 -0.2214 -0.1075
0.1287 0.3863 0.5954 0.7541 0.8017 0.7672
0.6860 0.5992 0.5086 0.4983 0.6057 0.7541
0.9492 1.1051 1.1415 1.1107 1.1275 1.1462
1.1042 1.0472 0.9670 0.9054 0.8801 0.8997
0.8960 0.9203 1.0099 1.0052 0.9950 0.9791
0.9380 0.9791 1.0342 1.0566 1.1229 1.1518
1.0930 1.0864 1.0342 1.0258 1.0967 1.0360
1.0500 1.1238 1.1471 1.2115 1.2984 1.3422
1.2984 1.3320 1.4066 1.4505 1.4636 1.3908
1.4337 1.5485 1.5383 1.5280 1.5588 1.5065
1.4524 1.4412 1.4402 1.4645 1.4206 1.3422
1.2591 1.1695 1.0696 0.9632 0.9119 0.8540
0.8139 0.7420 0.5936 0.4470 0.2622 0.0484
-0.1140 -0.2261 -0.3101 -0.3997 -0.5649 -0.6863
-0.6965 -0.7078 -0.7190 -0.7274 -0.7442 -0.8263
-0.9253 -0.9869 -1.0522 -1.0541 -0.9915 -0.8543
-0.7115 -0.6769 -0.6816 -0.7311 -0.8142 -0.8412
-0.8412 -0.8226 -0.7572 -0.7134 -0.7302 -0.7787
-0.9290 -1.1101 -1.1792 -1.2118 -1.2557 -1.2847
-1.3211 -1.3267 -1.2436 -1.1932 -1.2305 -1.2781
-1.3491 -1.4415 -1.5395 -1.5796 -1.5582 -1.5404
-1.5582 -1.6170 -1.6581 -1.7047 -1.8102 -1.9353
-1.9643 -1.9148 -1.8392 -1.7057 -1.5703 -1.5162
-1.5330 -1.5731 -1.6422 -1.6553 -1.6310 -1.5544
-1.4835 -1.4938 -1.4322 -1.3696 -1.3481 -1.3519
-1.3379 -1.3313 -1.3705 -1.3743 -1.4088 -1.3733
-1.2632 -1.2156 -1.1988 -1.2352 -1.2949 -1.3155
-1.3379 -1.3481 -1.3351 -1.3108 -1.2585 -1.2259
-1.2109 -1.2576 -1.3183 -1.3556 -1.4154 -1.3976
-1.3472 -1.2847 -1.2025 -1.1699 -1.1717 -1.1624
-1.1521 -1.1166 -1.0476 -1.0569 -1.0802 -1.0961
-1.1194 -1.1120 -1.0952 -1.0448 -1.0168 -1.0317
-1.0858 -1.1073 -1.0980 -1.1092 -1.1110 -1.1390
-1.1288 -1.1232 -1.1680 -1.2483 -1.3416 -1.3668
-1.4210 -1.4900 -1.5274 -1.5946 -1.6599 -1.7132
-1.7692 -1.8616 -1.9148 -1.9279 -1.9792 -2.0389
-2.1146 -2.1575 -2.1855 -2.2098 -2.1874 -2.2023
-2.2042 -2.1612 -2.1752 -2.1491 -2.0884 -2.0735
-2.0455 -2.0483 -2.0511 -2.0427 -2.0474 -2.0483
-2.0735 -2.0912 -2.0651 -2.0147 -1.9615 -1.9064
-1.8429 -1.7850 -1.7878 -1.8252 -1.8410 -1.9008
-1.9708 -1.9689 -1.9605 -1.9307 -1.8681 -1.8252
-1.7561 -1.6674 -1.6226 -1.6049 -1.5713 -1.5862
-1.5899 -1.5545 -1.5610 -1.5479 -1.5479 -1.5115
-1.4667 -1.4695 -1.4219 -1.3939 -1.3295 -1.2333
-1.1932 -1.1400 -1.1335 -1.1801 -1.2268 -1.2772
-1.3174 -1.3052 -1.2035 -1.0606 -0.9346 -0.8655
-0.8357 -0.8879 -0.9962 -1.0653 -1.0765 -1.0270
-0.9458 -0.8049 -0.6863 -0.6126 -0.5612 -0.5612
-0.5519 -0.5547 -0.5370 -0.4707 -0.3680 -0.2840
-0.2382 -0.2065 -0.2149 -0.2317 -0.2522 -0.2438
-0.2429 -0.2709 -0.2233 -0.1552 -0.1103 -0.0525
-0.0357 -0.0758 -0.1272 -0.1402 -0.1766 -0.1925
-0.1449 -0.1262 -0.1103 -0.0889 -0.1038 -0.1589
-0.1981 -0.2317 -0.2914 -0.3157 -0.3288 -0.3437
-0.3307 -0.3185 -0.2802 -0.2214 -0.2056 -0.2280
-0.2326 -0.2653 -0.3148 -0.3195 -0.3260 -0.3017
-0.2513 -0.1897 -0.1421 -0.1160 -0.1020 -0.1178
-0.0823 0.0045 0.1342 0.2574 0.3741 0.4796
0.5506 0.6215 0.6439 0.7046 0.7522 0.7382
0.7317 0.7289 0.7559 0.7765 0.8007 0.8213
0.8269 0.8764 0.9482 1.0154 1.0873 1.1443
1.1909 1.2395 1.2974 1.3459 1.3972 1.4486
1.4505 1.4617 1.4719 1.4430 1.4878 1.5447
1.5317 1.5345 1.5205 1.4831 1.4495 1.3711
1.2712 1.1956 1.0929 0.9762 0.9062 0.8343
0.7727 0.7242 0.6420 0.5748 0.5468 0.5001
0.5067 0.5496 0.5506 0.5506 0.5310 0.5076
0.5048 0.5235 0.5403 0.5618 0.6150 0.6318
0.6336 0.6999 0.7625 0.7951 0.8614 0.9333
0.9697 0.9949 1.0117 0.9930 1.0145 1.0388
1.0500 1.1041 1.1219 1.1695 1.2488 1.2647
1.2712 1.2395 1.1751 1.1153 1.0584 1.0164
1.0089 1.0593 1.0593 1.0229 1.0313 1.0052
0.9398 0.8539 0.7270 0.6336 0.5748 0.5067
0.4693 0.4525 0.4385 0.4124 0.4031 0.3872
0.2892 0.1996 0.1473 0.0969 0.1062 0.1295
0.1379 0.1519 0.0969 0.0334 -0.0198 -0.0665
-0.0562 -0.0245 0.0409 0.1277 0.1613 0.1585
0.1501 0.0558 -0.0469 -0.0926 -0.1421 -0.1010
-0.0189 0.0278 0.0735 0.0679 0.0184 -0.0264
-0.0702 -0.0945 -0.0898 -0.0637 -0.0105 0.0222
0.0138 -0.0245 -0.1244 -0.2308 -0.2915 -0.3438
-0.3764 -0.3923 -0.4072 -0.4156 -0.4119 -0.4082
-0.4614 -0.5211 -0.5659 -0.6341 -0.6733 -0.7097
-0.7526 -0.7386 -0.7181 -0.7125 -0.7144 -0.7498
-0.7321 -0.7041 -0.7284 -0.7218 -0.7358 -0.7358
-0.6742 -0.6845 -0.6677 -0.5277 -0.4548 -0.4530
-0.4343 -0.4502 -0.4857 -0.5435 -0.5547 -0.5594
-0.5837 -0.5323 -0.4558 -0.3858 -0.4194 -0.4315
-0.4128 -0.4801 -0.5146 -0.4987 -0.4334 -0.3718
-0.3027 -0.2364 -0.2252 -0.2065 -0.2140 -0.2878
-0.3615 -0.3671 -0.3503 -0.3092 -0.2299 -0.1925
-0.1767 -0.1580 -0.1879 -0.2261 -0.2401 -0.2513
-0.2177 -0.1515 -0.0609 0.0380 0.1277 0.2005
0.2135 0.2182 0.2369 0.2527 0.2770 0.2910
0.3237 0.3722 0.4478 0.5897 0.7064 0.7876
0.8306 0.8259 0.8520 0.8885 0.9547 1.0331
1.1200 1.2292 1.3104 1.3599 1.3804 1.4075
1.4131 1.4121 1.4588 1.5046 1.5531 1.5764
1.5736 1.5671 1.5382 1.5531 1.5830 1.6241
1.6726 1.6931 1.7202 1.7202 1.6689 1.6110
1.5540 1.4747 1.4009 1.3048 1.1946 1.1097
1.0481 0.9687 0.9053 0.9603 0.9958 0.9109
0.8343 0.8063 0.7792 0.7830 0.8156 0.8791
0.9678 1.0201 1.0854 1.1190 1.1302 1.1778
1.2114 1.2618 1.2973 1.3216 1.3421 1.3281
1.3160 1.3235 1.3599 1.3953 1.4579 1.5484
1.6054 1.6436 1.6539 1.6016 1.5596 1.5232
1.4700 1.4896 1.5130 1.5036 1.4906 1.4644
1.4009 1.3076 1.2105 1.0826 0.9986 0.9174
0.8436 0.8203 0.7895 0.7867 0.7596 0.7325
0.7213 0.7073 0.7008 0.6644 0.6485 0.6597
0.6663 0.6569 0.6747 0.6887 0.6084 0.5449
0.5038 0.4852 0.5346 0.5841 0.6392 0.6924
0.7195 0.6971 0.6644 0.6364 0.6224 0.6597
0.6803 0.6933 0.7176 0.7297 0.7335 0.7475
0.7419 0.7176 0.7269 0.7241 0.7204 0.7409
0.7456 0.7465 0.7447 0.7409 0.7409 0.7540
0.7568 0.7643 0.8063 0.8343 0.8735 0.8959
0.8744 0.8716 0.8884 0.9258 0.9444 0.9640
0.9659 0.9472 0.9780 0.9426 0.8838 0.8660
0.8427 0.8763 0.9099 0.9183 0.9435 0.9640
0.9500 0.9062 0.8950 0.8576 0.7923 0.7391
0.6644 0.6364 0.5776 0.4786 0.4217 0.3330
0.2406 0.1575 0.0894 0.0324 -0.0301 -0.0609
-0.0329 -0.0199 0.0053 0.1463 0.2695 0.3498
0.4049 0.4534 0.5393 0.6056 0.7185 0.8595
0.9640 1.0929 1.2189 1.3225 1.3962 1.4224
1.4373 1.4467 1.5129 1.5932 1.6072 1.6240
1.6091 1.6371 1.6996 1.6959 1.7192 1.7155
1.6950 1.6978 1.6838 1.6502 1.5969 1.5465
1.4495 1.3785 1.2889 1.1470 1.0630 0.9771
0.9127 0.8847 0.8427 0.7727 0.6971 0.6448
0.5850 0.5430 0.5104 0.4935 0.5029 0.4851
0.4637 0.4413 0.4114 0.3965 0.3974 0.4347
0.4702 0.5057 0.5524 0.5720 0.5608 0.5150
0.4562 0.4301 0.4534 0.4898 0.5524 0.6448
0.7026 0.6896 0.6233 0.5552 0.5187 0.4795
0.4693 0.4795 0.4571 0.5001 0.5299 0.5094
0.4767 0.4366 0.4021 0.3003 0.2359 0.1603
0.0996 0.0884 0.0333 0.0455 0.0268 -0.0572
-0.1468 -0.2747 -0.4250 -0.5492 -0.6556 -0.7891
-0.8824 -0.9702 -1.0738 -1.1672 -1.3053 -1.4313
-1.5191 -1.6526 -1.7553 -1.8019 -1.9093 -2.0073
-2.1137 -2.2500 -2.3443 -2.4274 -2.4741 -2.4713
-2.4442 -2.4423 -2.4349 -2.4255 -2.4741 -2.4834
-2.4955 -2.5282 -2.4965 -2.4834 -2.4526 -2.3845
-2.3807 -2.3919 -2.4199 -2.4787 -2.5329 -2.5889
-2.6076 -2.6160 -2.6234 -2.6356 -2.6328 -2.6253
-2.7140 -2.7924 -2.8605 -2.9707 -3.0500 -3.1163
-3.1089 -3.1313 -3.1705 -3.0967 -3.1509 -3.2423
-3.2451 -3.2610 -3.2984 -3.3516 -3.3329 -3.3525
-3.3422 -3.3086 -3.3310 -3.2937 -3.2965 -3.2806
-3.2657 -3.2732 -3.2339 -3.2013 -3.1341 -3.0472
-2.9968 -2.9875 -2.9754 -2.9660 -2.9772 -2.9436
-2.8661 -2.8204 -2.7681 -2.7084 -2.6692 -2.6206
-2.6533 -2.6804 -2.6860 -2.6991 -2.6206 -2.5600
-2.4843 -2.4078 -2.3975 -2.3994 -2.4059 -2.4302
-2.4610 -2.4377 -2.3985 -2.3415 -2.3051 -2.3051
-2.2836 -2.2706 -2.2799 -2.2556 -2.2407 -2.2388
-2.1828 -2.1707 -2.1427 -2.0979 -2.0792 -2.0661
-2.0708 -2.0195 -2.0017 -1.9765 -1.8972 -1.8682
-1.8692 -1.8776 -1.9476 -2.0139 -2.0353 -2.0652
-2.0745 -2.0755 -2.0876 -2.1091 -2.1100 -2.1026
-2.1100 -2.1287 -2.1623 -2.2015 -2.2519 -2.2351
-2.2024 -2.1950 -2.1212 -2.0549 -1.9905 -1.9233
-1.8748 -1.7880 -1.7497 -1.7292 -1.6927 -1.6937
-1.6853 -1.6769 -1.5966 -1.4920 -1.4547 -1.3548
-1.2447 -1.2064 -1.1737 -1.1821 -1.1980 -1.1653
-1.1495 -1.1000 -1.0402 -1.0104 -0.9525 -0.9291
-0.9105 -0.8862 -0.8797 -0.8377 -0.8162 -0.7975
-0.7359 -0.6902 -0.6426 -0.6099 -0.5782 -0.5287
-0.4979 -0.4148 -0.3597 -0.2748 -0.1497 -0.0750
0.0025 0.0361 0.0688 0.0706 0.0725 0.1276
0.1658 0.2125 0.2760 0.3460 0.4104 0.4506
0.4842 0.5196 0.5327 0.5626 0.5682 0.5551
0.5813 0.5850 0.6391 0.7241 0.7381 0.7820
0.8184 0.8090 0.8034 0.7941 0.8417 0.8856
0.8865 0.9182 0.9276 0.9192 0.9388 0.9519
0.9976 1.0517 1.0667 1.0788 1.0499 1.0480
1.0424 0.9733 0.9621 0.9528 0.9434 0.9201
0.8678 0.8436 0.7577 0.6951 0.6951 0.6447
0.6093 0.5822 0.5224 0.5000 0.5038 0.5299
0.5990 0.6905 0.7502 0.7894 0.8464 0.9033
0.9313 0.9724 1.0657 1.1656 1.2692 1.3458
1.4802 1.6389 1.7603 1.9264 2.0394 2.1393
2.2242 2.2569 2.3017 2.3820 2.4641 2.5341
2.6153 2.6237 2.5948 2.5705 2.5295 2.4529
2.3773 2.3456 2.2793 2.2457 2.2653 2.2382
2.2522 2.3110 2.3390 2.3493 2.2811 2.2233
2.2009 2.1654 2.1458 2.1234 2.1729 2.2410
2.2569 2.2980 2.3474 2.3633 2.3661 2.3773
2.4408 2.5304 2.5985 2.6742 2.7694 2.8487
2.9150 2.9822 3.0513 3.1764 3.2651 3.3052
3.4060 3.5050 3.5619 3.5880 3.5778 3.5815
3.6273 3.6310 3.6459 3.6917 3.7131 3.7113
3.6627 3.6310 3.5740 3.4639 3.3808 3.3173
3.2511 3.2034 3.1334 3.0438 2.9617 2.8636
2.7796 2.6452 2.5267 2.4380 2.2755 2.1551
2.1010 2.0664 2.0011 1.9227 1.8947 1.8760
1.8433 1.8163 1.8265 1.8443 1.8405 1.8452
1.8956 1.9535 1.9992 2.0440 2.0683 2.1140
2.1887 2.2419 2.2886 2.3465 2.3624 2.3147
2.2951 2.3325 2.3810 2.4044 2.4006 2.4482
2.4856 2.4324 2.3782 2.3082 2.2158 2.1812
2.1336 2.0412 1.9656 1.9208 1.9255 1.8975
1.7985 1.7164 1.6146 1.5250 1.4634 1.3728
1.3271 1.3075 1.2524 1.2907 1.4055 1.3719
1.2954 1.3000 1.3178 1.2991 1.2440 1.2421
1.2692 1.2879 1.2963 1.2720 1.2505 1.2739
1.2823 1.2627 1.3094 1.3206 1.2683 1.2589
1.2757 1.2795 1.2720 1.2879 1.3066 1.2944
1.2365 1.2179 1.2356 1.2132 1.2468 1.2925
1.3206 1.3374 1.3299 1.3654 1.3486 1.2851
1.2608 1.2645 1.2645 1.2449 1.2925 1.3934
1.4074 1.3551 1.3448 1.3878 1.3971 1.3159
1.2636 1.2851 1.2981 1.2636 1.2048 1.1927
1.1889 1.1516 1.1049 1.0396 0.9854 0.8977
0.7632 0.7035 0.7119 0.6736 0.6074 0.5383
0.4468 0.3861 0.3245 0.2592 0.1994 0.1667
0.1471 0.1098 0.1154 0.0837 0.0248 -0.0125
-0.0461 -0.0862 -0.1133 -0.1114 -0.1703 -0.2048
-0.1955 -0.2057 -0.2039 -0.1721 -0.1544 -0.1348
-0.0797 -0.0321 -0.0116 -0.0993 -0.0872 -0.0060
-0.0517 -0.1012 -0.1143 -0.0881 -0.1311 -0.1796
-0.2188 -0.2701 -0.3038 -0.4036 -0.4942 -0.5829
-0.6762 -0.7294 -0.7677 -0.7938 -0.8050 -0.8331
-0.9124 -0.9488 -0.9301 -0.9908 -1.0627 -1.1028
-1.1187 -1.0823 -1.0898 -1.0916 -1.0543 -1.0608
-1.0758 -1.0879 -1.1094 -1.0888 -1.0692 -1.0758
-1.0272 -0.9833 -0.9703 -0.9161 -0.8788 -0.8965
-0.9189 -0.9199 -0.9227 -0.9385 -0.9759 -1.0198
-1.0319 -1.0562 -1.1178 -1.1588 -1.1785 -1.1990
-1.2205 -1.2699 -1.2905 -1.3185 -1.4006 -1.4417
-1.4996 -1.5687 -1.5705 -1.6023 -1.6471 -1.6667
-1.7404 -1.8590 -1.9925 -2.1008 -2.1418 -2.1680
-2.1857 -2.1838 -2.2370 -2.3332 -2.4564 -2.6581
-2.8093 -2.9017 -2.9736 -2.9577 -2.9456 -2.9568
-2.9745 -3.0604 -3.2126 -3.3601 -3.4525 -3.5057
-3.5066 -3.4543 -3.4095 -3.3946 -3.4002 -3.4217
-3.4002 -3.3703 -3.3461 -3.3283 -3.3657 -3.3825
-3.3759 -3.3834 -3.4142 -3.3871 -3.3134 -3.2387
-3.1603 -3.1538 -3.1678 -3.1976 -3.2210 -3.2294
-3.2210 -3.2079 -3.2340 -3.2378 -3.2387 -3.2154
-3.2014 -3.2368 -3.3012 -3.3769 -3.4077 -3.4534
-3.5290 -3.5384 -3.4936 -3.4543 -3.4207 -3.4319
-3.4777 -3.5365 -3.5832 -3.5916 -3.6149 -3.6177
-3.5990 -3.5832 -3.5673 -3.5542 -3.5225 -3.5216
-3.5458 -3.5654 -3.5916 -3.6018 -3.6261 -3.6298
-3.6093 -3.6186 -3.5990 -3.5645 -3.5384 -3.4964
-3.5281 -3.5738 -3.5346 -3.5132 -3.5384 -3.5981
-3.6625 -3.6877 -3.7073 -3.7596 -3.8576 -3.9099
-3.9136 -3.9090 -3.8791 -3.8679 -3.8567 -3.8306
-3.8315 -3.8371 -3.8380 -3.8194 -3.7727 -3.7372
-3.6784 -3.5729 -3.4469 -3.3255 -3.2452 -3.1874
-3.1276 -3.0866 -3.0315 -2.9307 -2.8205 -2.6879
-2.5330 -2.4415 -2.3818 -2.3005 -2.2343 -2.1764
-2.0989 -1.9766 -1.8329 -1.7199 -1.6434 -1.5715
-1.5211 -1.5024 -1.4847 -1.4539 -1.3820 -1.3092
-1.2401 -1.1766 -1.1411 -1.0982 -1.0823 -1.0833
-1.0991 -1.1495 -1.1915 -1.2214 -1.2410 -1.2466
-1.2485 -1.2700 -1.2933 -1.3073 -1.3428 -1.3969
-1.4063 -1.4053 -1.4483 -1.4613 -1.4408 -1.4184
-1.3755 -1.3120 -1.2550 -1.2093 -1.1393 -1.0870
-1.0683 -1.0441 -0.9918 -0.9283 -0.8798 -0.7873
-0.6800 -0.5857 -0.4886 -0.4401 -0.4233 -0.3915
-0.3495 -0.2861 -0.2132 -0.1778 -0.1199 -0.0415
-0.0377 -0.0798 -0.1208 -0.1498 -0.1348 -0.1134
-0.1348 -0.1236 -0.0695 -0.0415 -0.0321 -0.0564
-0.0826 -0.0648 -0.0536 -0.0237 0.0267 0.0976
0.2078 0.2880 0.3422 0.4355 0.5588 0.6409
0.7072 0.7595 0.7763 0.8631 0.9686 1.0358
1.1553 1.3000 1.4036 1.4689 1.5259 1.5660
1.5959 1.6360 1.6883 1.7536 1.7938 1.8629
1.9413 1.9870 2.0365 2.0608 2.0888 2.1373
2.1868 2.2820 2.3641 2.4024 2.4463 2.4650
2.4995 2.5817 2.6535 2.7338 2.8421 2.9168
2.9252 2.9410 2.9336 2.8897 2.8850 2.9112
2.9700 3.0223 3.0540 3.0997 3.1576 3.2239
3.2948 3.3938 3.5058 3.5926 3.6365 3.6822
3.7915 3.8811 3.9595 4.0902 4.1929 4.2461
4.2806 4.3040 4.3142 4.3506 4.4001 4.4515
4.5103 4.5140 4.5261 4.5495 4.5429 4.5317
4.4832 4.4458 4.4757 4.5317 4.4953 4.4365
4.4356 4.3852 4.3404 4.2797 4.1966 4.1863
4.1611 4.1471 4.1509 4.1163 4.1126 4.1210
4.0855 4.0024 3.9810 3.9950 3.9968 4.0314
4.0071 4.0080 4.0230 3.9931 3.9791 3.9679
3.9894 4.0034 4.0099 4.0519 4.0911 4.0986
4.1023 4.1135 4.1088 4.0986 4.1107 4.1378
4.1761 4.2190 4.2059 4.1957 4.1705 4.0948
4.0715 4.0538 4.0500 4.0762 4.0790 4.0846
4.0958 4.0631 4.0127 3.9987 3.9670 3.9670
3.9595 3.9361 3.9810 3.9483 3.8764 3.7971
3.6934 3.6486 3.6150 3.5767 3.5543 3.5562
3.5179 3.4694 3.4115 3.3135 3.2538 3.1949
3.1240 3.0465 2.9569 2.8953 2.8738 2.8589
2.7945 2.7263 2.6787 2.6171 2.5527 2.4827
2.4229 2.3931 2.4080 2.4192 2.3809 2.3809
2.3473 2.2642 2.2297 2.1681 2.1214 2.1354
2.1046 2.0215 1.9590 1.9002 1.8470 1.8040
1.7247 1.6575 1.5538 1.4764 1.4222 1.2439
1.1814 1.1534 1.0059 0.9611 0.9069 0.7977
0.7744 0.7277 0.6353 0.5279 0.4738 0.4206
0.2731 0.2301 0.2003 0.1396 0.1657 0.1265
0.0406 -0.0051 -0.1199 -0.2077 -0.2152 -0.2758
-0.2544 -0.2581 -0.3524 -0.3748 -0.4439 -0.5652
-0.6698 -0.6754 -0.6735 -0.7556 -0.7613 -0.7743
-0.8191 -0.8733 -0.9788 -1.0124 -1.0329 -1.0609
-1.0842 -1.1319 -1.1599 -1.2196 -1.2961 -1.3895
-1.4651 -1.5071 -1.5379 -1.5697 -1.6322 -1.7022
-1.7732 -1.8357 -1.8945 -1.9300 -1.9561 -2.0028
-2.0467 -2.0719 -2.0980 -2.1391 -2.1624 -2.1755
-2.1774 -2.1867 -2.1923 -2.1904 -2.1839 -2.1251
-2.0971 -2.0663 -1.9655 -1.9113 -1.8525 -1.8086
-1.8021 -1.6761 -1.5538 -1.5053 -1.4156 -1.3288
-1.2710 -1.1953 -1.1580 -1.1916 -1.2037 -1.1804
-1.1823 -1.1552 -1.1123 -1.1403 -1.1412 -1.1468
-1.2317 -1.3316 -1.4194 -1.4324 -1.4409 -1.5585
-1.6584 -1.6537 -1.6714 -1.7312 -1.7750 -1.8423
-1.9524 -2.0579 -2.1092 -2.1727 -2.2334 -2.2857
-2.3361 -2.3473 -2.3716 -2.3912 -2.4229 -2.4182
-2.3809 -2.3893 -2.3809 -2.3902 -2.4070 -2.3958
-2.3716 -2.3501 -2.3426 -2.2745 -2.2446 -2.2474
-2.2063 -2.2073 -2.2091 -2.2157 -2.2166 -2.2026
-2.1793 -2.1662 -2.1914 -2.2007 -2.2138 -2.2007
-2.1821 -2.2054 -2.2231 -2.2409 -2.2315 -2.2483
-2.3240 -2.3594 -2.3828 -2.4108 -2.4005 -2.3884
-2.4276 -2.4798 -2.5256 -2.5947 -2.6647 -2.6955
-2.7002 -2.7403 -2.7646 -2.7683 -2.8103 -2.8327
-2.8038 -2.7776 -2.7842 -2.7748 -2.7888 -2.8187
-2.8402 -2.8607 -2.8561 -2.8523 -2.8038 -2.7375
-2.6684 -2.6068 -2.5704 -2.5069 -2.5060 -2.4799
-2.4182 -2.4332 -2.3921 -2.3408 -2.2941 -2.2222
-2.1783 -2.1373 -2.1242 -2.0981 -2.0775 -2.0644
-2.0140 -1.9786 -1.9422 -1.8824 -1.8255 -1.7937
-1.7667 -1.7237 -1.6780 -1.6313 -1.6080 -1.5753
-1.5118 -1.4773 -1.4745 -1.4577 -1.4390 -1.4166
-1.3606 -1.3027 -1.2392 -1.1879 -1.1552 -1.0945
-1.0703 -1.0917 -1.0880 -1.0637 -1.0171 -0.9489
-0.8882 -0.8434 -0.8154 -0.7762 -0.7669 -0.7874
-0.7632 -0.7519 -0.7351 -0.6754 -0.6073 -0.5279
-0.4579 -0.3898 -0.3375 -0.3001 -0.2665 -0.2469
-0.2208 -0.2031 -0.1713 -0.1256 -0.0780 -0.0201
0.0378 0.1143 0.0845 0.0593 0.0929 0.0621
0.0957 0.0901 0.0201 0.0350 0.0583 0.0247
-0.0574 -0.1480 -0.2115 -0.2581 -0.2927 -0.3272
-0.3674 -0.3739 -0.3888 -0.4495 -0.5046 -0.5447
-0.5895 -0.6381 -0.7071 -0.7697 -0.8098 -0.8220
-0.8546 -0.8836 -0.8826 -0.9741 -1.0059 -0.9788
-0.9825 -0.9695 -0.9928 -0.9928 -0.9648 -0.9228
-0.8929 -0.8817 -0.8724 -0.8742 -0.8593 -0.8546
-0.8434 -0.8164 -0.7790 -0.7100 -0.6819 -0.6782
-0.6651 -0.6801 -0.6773 -0.6829 -0.6726 -0.6381
-0.5998 -0.5587 -0.5326 -0.4812 -0.4598 -0.4672
-0.4654 -0.4747 -0.4588 -0.4392 -0.4206 -0.3524
-0.2871 -0.2479 -0.2012 -0.1741 -0.1648 -0.1452
-0.0770 -0.0332 -0.0136 0.0340 0.0966 0.1563
0.1694 0.1965 0.2021 0.2525 0.3206 0.3598
0.4495 0.4915 0.5605 0.5988 0.5633 0.5559
0.5372 0.5577 0.5867 0.6474 0.7687 0.8042
0.8341 0.9031 0.8434 0.7659 0.7799 0.7640
0.7920 0.8686 0.8667 0.8761 0.9227 0.9106
0.9190 0.9386 0.9059 0.9451 0.9293 0.8387
0.8527 0.8826 0.8714 0.8630 0.8733 0.8574
0.8705 0.9134 0.9162 0.9321 0.9470 0.9274
0.8499 0.8079 0.8331 0.8312 0.8051 0.7818
0.7771 0.7360 0.7043 0.6744 0.6212 0.6147
0.6025 0.5951 0.6100 0.6053 0.5755 0.5428
0.4877 0.4289 0.4177 0.4130 0.4028 0.4046
0.4140 0.3953 0.3617 0.3057 0.2095 0.1208
0.0583 0.0200 -0.0052 -0.0033 0.0088 -0.0098
-0.0649 -0.1191 -0.1517 -0.1807 -0.2246 -0.2563
-0.2554 -0.2638 -0.2731 -0.2787 -0.2824 -0.2843
-0.3104 -0.3356 -0.3440 -0.3711 -0.3674 -0.3328
-0.2955 -0.2423 -0.2283 -0.2423 -0.2516 -0.2507
-0.2395 -0.2283 -0.1891 -0.1172 -0.0369 0.0070
0.0228 0.0611 0.0788 0.0798 0.0723 0.0359
0.0023 0.0088 0.0070 -0.0313 -0.0407 -0.0444
-0.0537 -0.0491 -0.0351 -0.0201 -0.0127 0.0107
0.0004 -0.0127 -0.0285 -0.0743 -0.0967 -0.0967
-0.0687 -0.0080 0.0751 0.0984 0.1059 0.1423
0.1610 0.1750 0.1815 0.2291 0.3122 0.3925
0.4802 0.5783 0.6417 0.6744 0.7015 0.7192
0.7407 0.7771 0.8219 0.8219 0.8499 0.9143
0.9535 0.9713 0.9479 0.9367 0.9199 0.8900
0.8835 0.8648 0.8536 0.8676 0.8900 0.9180
0.9470 0.9694 0.9806 0.9825 0.9647 0.9264
0.9012 0.9059 0.9143 0.9432 0.9899 1.0291
1.0646 1.0823 1.0767 1.0422 1.0273 1.0441
1.0646 1.1327 1.2093 1.2513 1.2998 1.3381
1.3521 1.3624 1.3764 1.4492 1.5024 1.5341
1.5958 1.6182 1.6658 1.7152 1.7377 1.7629
1.7946 1.8329 1.8954 1.9860 2.0457 2.1064
2.1521 2.1755 2.2399 2.2828 2.2725 2.2819
2.3080 2.3258 2.3500 2.3846 2.4182 2.4480
2.4695 2.4471 2.4256 2.4322 2.4210 2.4107
2.4350 2.4462 2.4546 2.4770 2.4639 2.4527
2.4182 2.3986 2.4079 2.3920 2.3967 2.4042
2.3986 2.3622 2.3752 2.4116 2.3594 2.3099
2.2520 2.1848 2.1316 2.0784 2.0494 2.0410
2.0560 2.0392 2.0214 2.0364 2.0261 1.9804
1.9169 1.8683 1.8291 1.7946 1.7582 1.7423
1.6882 1.6359 1.6536 1.6294 1.5743 1.5099
1.4520 1.4062 1.3577 1.3054 1.2513 1.2074
1.1785 1.1766 1.1701 1.1533 1.1402 1.1439
1.1533 1.1579 1.1383 1.0879 1.0356 0.9656
0.9423 0.9246 0.8947 0.9059 0.8704 0.8153
0.7799 0.7444 0.6893 0.6230 0.5810 0.5119
0.4447 0.4074 0.3850 0.3719 0.3439 0.3187
0.2683 0.1834 0.1357 0.1180 0.0732 0.0293
-0.0183 -0.0584 -0.1079 -0.1798 -0.2078 -0.2237
-0.2461 -0.2722 -0.3263 -0.3917 -0.4281 -0.4533
-0.4626 -0.4197 -0.3908 -0.3730 -0.3534 -0.3656
-0.3403 -0.3142 -0.3142 -0.2965 -0.2853 -0.2311
-0.1798 -0.1172 -0.0528 -0.0715 -0.0827 -0.0603
-0.0426 -0.0220 0.0050 0.0190 0.0452 0.0676
0.0396 0.0461 0.0611 0.0443 0.0816 0.1087
0.1087 0.1227 0.1320 0.1068 0.0424 0.0340
0.0517 0.0555 0.0760 0.1021 0.1031 0.0956
0.0779 0.0377 0.0228 -0.0183 -0.0650 -0.0892
-0.1238 -0.1135 -0.0864 -0.0752 -0.0622 -0.0650
-0.0668 -0.0864 -0.1144 -0.1182 -0.1116 -0.1238
-0.1835 -0.2237 -0.2442 -0.2955 -0.3161 -0.3320
-0.3590 -0.3740 -0.4150 -0.4402 -0.4897 -0.5541
-0.5859 -0.6363 -0.6652 -0.6848 -0.7044 -0.6960
-0.6979 -0.6979 -0.7166 -0.7595 -0.7847 -0.8202
-0.8360 -0.8388 -0.8557 -0.8575 -0.8454 -0.8164
-0.8043 -0.8136 -0.8267 -0.8211 -0.8192 -0.8220
-0.8183 -0.8351 -0.8183 -0.8062 -0.8127 -0.8099
-0.7940 -0.7791 -0.7922 -0.7800 -0.7744 -0.8118
-0.8557 -0.8874 -0.9163 -0.9462 -0.9807 -1.0181
-1.0218 -1.0284 -1.0545 -1.0900 -1.1012 -1.1049
-1.1376 -1.1124 -1.0937 -1.1002 -1.1254 -1.1637
-1.1441 -1.1152 -1.0433 -0.9714 -0.9471 -0.9247
-0.8706 -0.8155 -0.7884 -0.7436 -0.7119 -0.6634
-0.6055 -0.5355 -0.4571 -0.4216 -0.3702 -0.3525
-0.3245 -0.2582 -0.2218 -0.1406 -0.0921 -0.0435
0.0228 0.0162 0.0750 0.0928 0.0834 0.1413
0.1086 0.1170 0.1189 0.0788 0.1198 0.0657
-0.0276 -0.0603 -0.1527 -0.2536 -0.3217 -0.4029
-0.4608 -0.5215 -0.6083 -0.7268 -0.8351 -0.9210
-1.0293 -1.1208 -1.2057 -1.2664 -1.3234 -1.4195
-1.4764 -1.5166 -1.5567 -1.5875 -1.6193 -1.6435
-1.6856 -1.6837 -1.6800 -1.6921 -1.6641 -1.6575
-1.6669 -1.6949 -1.6725 -1.6193 -1.6006 -1.5754
-1.5549 -1.5157 -1.4699 -1.4363 -1.4251 -1.4307
-1.4419 -1.4447 -1.4148 -1.4027 -1.3803 -1.3420
-1.3075 -1.2701 -1.2459 -1.2123 -1.2076 -1.2113
-1.1899 -1.2048 -1.2459 -1.2384 -1.2104 -1.1833
-1.1320 -1.1152 -1.1245 -1.1236 -1.1329 -1.1152
-1.1189 -1.1143 -1.0657 -1.0919 -1.1133 -1.1049
-1.1217 -1.1059 -1.0498 -1.0162 -1.0312 -1.0274
-1.0349 -1.0452 -1.0424 -1.0368 -0.9976 -0.9966
-1.0069 -1.0116 -1.0779 -1.0937 -1.0545 -1.0601
-1.0881 -1.0984 -1.0760 -1.0919 -1.1059 -1.0685
-1.0573 -1.0452 -1.0302 -1.0200 -0.9770 -0.9444
-0.9378 -0.9005 -0.8351 -0.7847 -0.7493 -0.7063
-0.6438 -0.6242 -0.6400 -0.6494 -0.6578 -0.6335
-0.6307 -0.6018 -0.5831 -0.6102 -0.5878 -0.5766
-0.5486 -0.5392 -0.5486 -0.5299 -0.5448 -0.5280
-0.5131 -0.5000 -0.4403 -0.3665 -0.3161 -0.3031
-0.2648 -0.2405 -0.2312 -0.2097 -0.1836 -0.1565
-0.1453 -0.1061 -0.0762 -0.0613 -0.0454 -0.0426
-0.0109 0.0414 0.0918 0.1096 0.1124 0.1413
0.1758 0.2244 0.2654 0.2907 0.3383 0.3719
0.3887 0.4269 0.4568 0.4596 0.4811 0.4914
0.4689 0.4577 0.4363 0.4297 0.4381 0.4148
0.4055 0.3924 0.3485 0.3103 0.2664 0.2244
0.1590 0.0993 0.1049 0.1067 0.0731 0.0498
-0.0006 -0.0622 -0.0977 -0.1565 -0.2060 -0.2499
-0.2452 -0.2452 -0.2825 -0.2937 -0.3320 -0.3217
-0.3301 -0.3656 -0.3787 -0.3833 -0.3320 -0.3105
-0.2937 -0.2732 -0.2592 -0.2265 -0.2125 -0.1994
-0.1733 -0.1425 -0.0977 -0.0417 -0.0099 0.0078
-0.0053 -0.0062 0.0022 -0.0118 -0.0053 -0.0370
-0.0529 -0.0548 -0.0725 -0.0809 -0.0986 -0.1061
-0.1416 -0.1770 -0.2172 -0.2769 -0.3199 -0.3507
-0.3656 -0.3964 -0.4618 -0.5308 -0.6130 -0.7110
-0.7754 -0.8361 -0.8725 -0.8902 -0.9276 -0.9491
-0.9957 -1.0340 -1.0695 -1.1311 -1.1628 -1.2104
-1.2459 -1.2506 -1.2795 -1.2804 -1.2748 -1.2758
-1.2440 -1.2207 -1.1964 -1.1834 -1.1610 -1.1180
-1.1022 -1.0592 -1.0237 -1.0107 -0.9659 -0.9276
-0.8604 -0.7932 -0.7428 -0.6830 -0.6765 -0.6503
-0.6149 -0.6093 -0.5729 -0.5458 -0.5140 -0.4375
-0.3778 -0.3320 -0.2872 -0.2704 -0.2779 -0.2732
-0.2321 -0.2191 -0.1957 -0.1668 -0.1444 -0.1089
-0.1061 -0.1136 -0.1463 -0.1836 -0.2041 -0.2172
-0.2331 -0.2471 -0.2583 -0.2891 -0.2984 -0.3199
-0.3712 -0.4132 -0.4804 -0.5327 -0.5327 -0.5486
-0.5271 -0.4804 -0.4515 -0.4030 -0.3992 -0.4142
-0.3964 -0.3591 -0.3003 -0.2471 -0.1668 -0.0622
0.0218 0.0685 0.1263 0.2010 0.2327 0.2682
0.3149 0.3886 0.4493 0.5137 0.6080 0.6780
0.7350 0.7583 0.7919 0.8311 0.8461 0.8591
0.8750 0.9077 0.9310 0.9469 0.9590 0.9730
0.9833 0.9898 0.9973 0.9777 0.9655 0.9590
0.9403 0.9357 0.9291 0.9441 0.9786 1.0047
1.0300 1.0710 1.1112 1.1270 1.1504 1.1653
1.1802 1.1849 1.1952 1.2307 1.2503 1.2615
1.2400 1.2297 1.1942 1.1466 1.1270 1.0393
0.9907 0.9870 0.9441 0.9198 0.8769 0.8143
0.7732 0.7331 0.6976 0.6836 0.6939 0.6976
0.7126 0.7126 0.6649 0.6649 0.6817 0.6761
0.6687 0.6724 0.6724 0.6481 0.6556 0.6771
0.6817 0.6845 0.6995 0.7051 0.7191 0.7350
0.7275 0.7527 0.7518 0.7116 0.7126 0.7210
0.6995 0.6864 0.6565 0.6360 0.6323 0.6108
0.6089 0.6043 0.6052 0.6052 0.5604 0.5118
0.4624 0.4194 0.3886 0.3494 0.3205 0.3074
0.2729 0.2346 0.2169 0.1898 0.1814 0.1879
0.1636 0.1394 0.1300 0.1086 0.0731 0.0302
0.0124 0.0152 0.0255 0.0348 0.0367 0.0610
0.0824 0.1076 0.1599 0.2206 0.2869 0.3279
0.3728 0.4138 0.4549 0.5249 0.5753 0.6416
0.7172 0.7844 0.8638 0.9104 0.9216 0.9413
0.9562 0.9814 1.0075 1.0057 1.0309 1.0570
1.0841 1.0971 1.0869 1.0701 1.0579 1.0477
1.0318 1.0430 1.0150 0.9907 1.0029 1.0159
1.0299 1.0197 1.0029 0.9721 0.9310 0.8628
0.7938 0.7349 0.6696 0.6603 0.6547 0.6491
0.6827 0.6827 0.7023 0.7685 0.8068 0.8404
0.8516 0.8862 0.9506 1.0057 1.0747 1.1093
1.1457 1.1634 1.1821 1.2372 1.2577 1.2950
1.3501 1.3772 1.3875 1.4015 1.4043 1.3772
1.4024 1.4407 1.4360 1.4267 1.4229 1.4528
1.4892 1.4883 1.4332 1.3651 1.3137 1.2512
1.1989 1.1671 1.1438 1.1177 1.1121 1.1111
1.0822 1.0430 0.9842 0.9179 0.8563 0.7984
0.7396 0.6995 0.6649 0.6416 0.6705 0.6472
0.6014 0.5678 0.4960 0.4446 0.4082 0.3933
0.3979 0.4054 0.4185 0.4269 0.4474 0.4633
0.4409 0.3961 0.4082 0.4717 0.5044 0.5100
0.5436 0.5641 0.5641 0.5688 0.5604 0.5790
0.5632 0.5464 0.5865 0.5828 0.5734 0.5893
0.5800 0.5949 0.6266 0.6266 0.6341 0.6434
0.6434 0.6014 0.5324 0.5025 0.4633 0.4353
0.4091 0.3457 0.2990 0.2336 0.1412 0.0749
0.0217 -0.0614 -0.1248 -0.1594 -0.2546 -0.3414
-0.3946 -0.4357 -0.4814 -0.5813 -0.6765 -0.7531
-0.7830 -0.7699 -0.7830 -0.8268 -0.8894 -0.9407
-0.9734 -0.9883 -1.0247 -1.0555 -1.0415 -1.0471
-1.0751 -1.0686 -1.0639 -1.0873 -1.0947 -1.1246
-1.1442 -1.1508 -1.1890 -1.1918 -1.1825 -1.1853
-1.2030 -1.2450 -1.2796 -1.3010 -1.3188 -1.3347
-1.3823 -1.4299 -1.4215 -1.4261 -1.4597 -1.4924
-1.5046 -1.4999 -1.5354 -1.5671 -1.5652 -1.5662
-1.5652 -1.5606 -1.5484 -1.4971 -1.4625 -1.4308
-1.3543 -1.2842 -1.2273 -1.1844 -1.1442 -1.1088
-1.0294 -0.9323 -0.8922 -0.8492 -0.8082 -0.7615
-0.7307 -0.7410 -0.7288 -0.7157 -0.6868 -0.6747
-0.7223 -0.7578 -0.7960 -0.8408 -0.8492 -0.8567
-0.9025 -0.9286 -0.9547 -0.9762 -0.9725 -1.0089
-1.0369 -1.0369 -1.0555 -1.0976 -1.1396 -1.1825
-1.2077 -1.2226 -1.2413 -1.2357 -1.2301 -1.2152
-1.2208 -1.2422 -1.2301 -1.2385 -1.2553 -1.2488
-1.2320 -1.1797 -1.1069 -1.0602 -1.0266 -0.9650
-0.8959 -0.8222 -0.7428 -0.6793 -0.6261 -0.5571
-0.4656 -0.4226 -0.3358 -0.2341 -0.1790 -0.0455
0.0572 0.1291 0.2252 0.2887 0.3251 0.3587
0.4268 0.4586 0.4978 0.5743 0.6163 0.6985
0.7741 0.7274 0.7573 0.8852 0.9225 0.9860
0.9916 0.9552 1.0420 1.0896 1.0850 1.0934
1.1102 1.1279 1.1251 1.1596 1.1942 1.1848
1.2073 1.2091 1.2129 1.2493 1.2157 1.2194
1.2549 1.2511 1.2614 1.2773 1.3146 1.3099
1.2885 1.3118 1.3155 1.2913 1.2745 1.3118
1.3398 1.3370 1.3258 1.3071 1.3286 1.3342
1.3239 1.2745 1.2194 1.2231 1.1988 1.1680
1.1251 1.0626 0.9991 0.9412 0.9412 0.9701
1.0093 1.0373 1.0579 1.0429 0.9795 0.9169
0.8506 0.8273 0.8226 0.8320 0.8646 0.8759
0.8945 0.8983 0.8161 0.6649 0.6061 0.6145
0.5818 0.5482 0.5333 0.5659 0.6070 0.6331
0.6247 0.5603 0.4978 0.4212 0.3372 0.2859
0.2616 0.2532 0.2607 0.2859 0.2756 0.2140
0.1262 0.0637 0.0329 -0.0250 -0.0549 -0.0474
-0.0212 -0.0371 -0.0577 -0.0194 -0.0353 -0.0959
-0.1258 -0.0353 0.0590 0.1029 0.1524 0.1645
0.1944 0.1888 0.1374 0.0786 0.0189 0.0086
0.0105 -0.0175 -0.0278 -0.0661 -0.1538 -0.2089
-0.2546 -0.2416 -0.1968 -0.2462 -0.2332 -0.1557
-0.1239 -0.1071 -0.1342 -0.1071 -0.0950 -0.1772
-0.2425 -0.2752 -0.2621 -0.2033 -0.1389 -0.0913
-0.0138 0.0674 0.1085 0.0982 0.0833 0.0898
0.0721 0.0814 0.1374 0.2074 0.2737 0.3353
0.3512 0.3400 0.3241 0.2709 0.2383 0.1692
0.1132 0.0768 0.0021 0.0357 0.0497 -0.0371
-0.1071 -0.1155 -0.0950 -0.1174 -0.1379 -0.1846
-0.2416 -0.2621 -0.2453 -0.2304 -0.2556 -0.2845
-0.3303 -0.3723 -0.3928 -0.4096 -0.4236 -0.4124
-0.3844 -0.3639 -0.3489 -0.3321 -0.3237 -0.3219
-0.2966 -0.3078 -0.3405 -0.3303 -0.3032 -0.2798
-0.3004 -0.3004 -0.2369 -0.1790 -0.1520 -0.1697
-0.2108 -0.2696 -0.3023 -0.3060 -0.3144 -0.3116
-0.2780 -0.1977 -0.1445 -0.1445 -0.1800 -0.2668
-0.3667 -0.4609 -0.5104 -0.4983 -0.4712 -0.4068
-0.3620 -0.3825 -0.4012 -0.5002 -0.6224 -0.6878
-0.7065 -0.6561 -0.6122 -0.5870 -0.6374 -0.6850
-0.7877 -0.9408 -0.8605 -0.8082 -0.8456 -0.7419
-0.6084 -0.5338 -0.5674 -0.7065 -0.8166 -0.8782
-0.8624 -0.7214 -0.6187 -0.5776 -0.5524 -0.5506
-0.5711 -0.6150 -0.6561 -0.6747 -0.6187 -0.5338
-0.4320 -0.3592 -0.3657 -0.3676 -0.3452 -0.3443
-0.3508 -0.3797 -0.4479 -0.5356 -0.6430 -0.7037
-0.6859 -0.5907 -0.5375 -0.5524 -0.5254 -0.5646
-0.6607 -0.7718 -0.8493 -0.8437 -0.7914 -0.6943
-0.6327 -0.6355 -0.6813 -0.7690 -0.8764 -0.9548
-0.9996 -0.9791 -0.8969 -0.8232 -0.7242 -0.6645
-0.7195 -0.8110 -0.8689 -0.8894 -0.8782 -0.8418
-0.8008 -0.7989 -0.8250 -0.8558 -0.8689 -0.7914
-0.7270 -0.7447 -0.7363 -0.6663 -0.5842 -0.5347
-0.5207 -0.5664 -0.5991 -0.6309 -0.6803 -0.6999
-0.7410 -0.7195 -0.6551 -0.5898 -0.5366 -0.5384
-0.5375 -0.5889 -0.6374 -0.5982 -0.5562 -0.5011
-0.4442 -0.4264 -0.4376 -0.4554 -0.4563 -0.4348
-0.4115 -0.4498 -0.4554 -0.3900 -0.3452 -0.3209
-0.3648 -0.4516 -0.4787 -0.4190 -0.3975 -0.3956
-0.3854 -0.4330 -0.4395 -0.4862 -0.5842 -0.6495
-0.7224 -0.7438 -0.6794 -0.6411 -0.6561 -0.6542
-0.6878 -0.7672 -0.7952 -0.8082 -0.8157 -0.8017
-0.8428 -0.8493 -0.8381 -0.8568 -0.8166 -0.7672
-0.7158 -0.6915 -0.6990 -0.6803 -0.7056 -0.7158
-0.6794 -0.5917 -0.3798 -0.1996 -0.1314 -0.1006
-0.1128 -0.0633 0.0263 0.0609 0.1253 0.2205
0.3017 0.3726 0.4399 0.4791 0.4949 0.5351
0.5453 0.5239 0.5453 0.5743 0.5687 0.5584
0.5640 0.5379 0.4856 0.4679 0.4707 0.5052
0.5145 0.5444 0.6209 0.5724 0.4427 0.2644
0.1514 0.1981 0.2251 0.2802 0.3372 0.3250
0.3278 0.2942 0.2307 0.1953 0.1579 0.1654
0.2205 0.2774 0.3680 0.4398 0.4977 0.5145
0.4819 0.4417 0.3848 0.3353 0.3082 0.3950
0.5285 0.6518 0.7815 0.8721 0.9047 0.9010
0.8711 0.8272 0.8935 1.0074 1.0933 1.1624
1.1885 1.2707 1.3715 1.4126 1.4247 1.3789
1.3603 1.3799 1.3976 1.4322 1.4480 1.4686
1.5124 1.5488 1.5796 1.6263 1.6506 1.6431
1.6077 1.5432 1.4835 1.4723 1.4947 1.5395
1.5955 1.5964 1.5442 1.4387 1.3519 1.2548
1.1960 1.2314 1.2567 1.3183 1.3715 1.4069
1.3780 1.2996 1.3276 1.3967 1.4312 1.4555
1.4667 1.4676 1.5143 1.5516 1.5582 1.5591
1.5208 1.5012 1.4854 1.4798 1.5012 1.5208
1.5255 1.5227 1.5236 1.4882 1.4387 1.3733
1.3341 1.3323 1.3351 1.3295 1.2968 1.3099
1.3341 1.3267 1.3015 1.2734 1.2669 1.2819
1.2734 1.2380 1.2128 1.1614 1.1288 1.0914
1.0643 1.1007 1.1082 1.0858 1.0503 1.0121
0.9598 0.8944 0.8375 0.7908 0.7395 0.6928
0.6723 0.6499 0.6265 0.5855 0.4930 0.3838
0.3138 0.2531 0.1924 0.1374 0.0599 0.0282
0.0244 -0.0213 -0.0643 -0.1007 -0.1651 -0.2155
-0.2575 -0.3154 -0.3583 -0.4218 -0.4787 -0.5105
-0.5665 -0.5964 -0.6122 -0.6570 -0.6804 -0.7289
-0.8447 -0.9184 -0.9922 -1.0631 -1.0351 -1.0127
-0.9987 -1.0108 -1.0893 -1.1733 -1.2479 -1.2862
-1.3133 -1.3413 -1.3189 -1.2956 -1.3021 -1.3114
-1.3544 -1.4001 -1.4561 -1.4813 -1.4449 -1.4169
-1.3581 -1.3152 -1.2946 -1.2778 -1.3021 -1.3320
-1.3758 -1.3926 -1.3656 -1.3506 -1.3124 -1.2844
-1.2797 -1.2648 -1.2638 -1.2676 -1.2928 -1.3105
-1.3422 -1.4048 -1.4188 -1.4132 -1.3786 -1.3600
-1.3674 -1.3749 -1.4496 -1.4935 -1.4748 -1.4757
-1.4683 -1.4477 -1.4459 -1.4431 -1.4459 -1.4477
-1.4309 -1.4169 -1.4011 -1.3618 -1.3161 -1.3002
-1.2788 -1.2508 -1.2629 -1.2274 -1.2013 -1.2172
-1.1966 -1.2004 -1.1714 -1.1275 -1.1033 -1.0594
-1.0407 -1.0286 -0.9959 -0.9819 -0.9754 -0.9651
-0.9856 -0.9866 -0.9922 -0.9819 -0.9492 -0.9651
-0.9548 -0.9334 -0.8839 -0.8232 -0.7943 -0.7448
-0.6907 -0.6776 -0.7009 -0.6692 -0.6571 -0.6627
-0.6244 -0.6225 -0.5730 -0.5366 -0.5320 -0.5002
-0.5310 -0.5460 -0.5516 -0.5730 -0.5441 -0.4844
-0.4246 -0.3947 -0.3779 -0.4059 -0.4489 -0.4498
-0.4302 -0.4190 -0.4788 -0.5142 -0.4862 -0.4648
-0.4200 -0.3882 -0.3537 -0.2809 -0.2333 -0.2080
-0.2034 -0.1819 -0.1875 -0.2230 -0.1987 -0.1800
-0.1184 -0.0036 0.1019 0.2055 0.2326 0.2242
0.2102 0.1541 0.1149 0.1457 0.2550 0.3511
0.4174 0.4183 0.3978 0.4165 0.3614 0.3166
0.2690 0.2382 0.2550 0.2111 0.2363 0.2858
0.2596 0.2232 0.1541 0.0645 -0.0120 -0.0484
-0.0718 -0.0998 -0.1044 -0.1147 -0.1352 -0.1950
-0.2809 -0.3117 -0.3089 -0.3481 -0.3303 -0.3574
-0.3976 -0.3350 -0.3882 -0.3938 -0.3359 -0.3770
-0.4209 -0.3546 -0.2510 -0.2725 -0.2883 -0.2258
-0.1455 -0.1997 -0.2277 -0.0904 -0.2501 -0.2594
-0.0951 -0.1782 -0.1464 -0.0942 -0.0307 -0.1184
-0.1408 -0.0260 -0.1203 -0.1717 -0.1194 -0.1203
-0.1184 -0.0055 0.0216 0.0972 0.1663 0.1485
0.1980 0.1121 0.1140 0.1233 0.0533 0.0972
0.1355 0.1915 0.2297 0.2652 0.2578 0.2307
0.2017 0.1495 0.1653 0.2185 0.2904 0.3483
0.4043 0.4491 0.4771 0.4911 0.4818 0.5042
0.5098 0.5331 0.6050 0.6293 0.6844 0.7441
0.7488 0.7730 0.7861 0.8020 0.8253 0.8477
0.8748 0.8795 0.9149 0.9504 0.9821 1.0298
1.0512 1.1063 1.1427 1.1604 1.1567 1.1427
1.2109 1.2398 1.1455 1.1035 1.1847 1.2221
1.2277 1.2790 1.2977 1.3070 1.3369 1.2986
1.2081 1.1352 1.0904 1.0298 0.9775 0.9980
1.0204 1.0410 1.0718 1.0820 1.0671 1.0624
1.0428 0.9924 0.9700 0.9448 0.9093 0.9271
0.9271 0.8981 0.8916 0.8664 0.8337 0.8010
0.7805 0.7749 0.8888 0.9719 0.8729 0.8477
0.9252 0.9635 0.9728 0.9691 0.8935 0.8542
0.8963 0.9439 0.9663 0.9336 0.9187 0.9159
0.8981 0.8776 0.8542 0.8328 0.8608 0.9252
0.9411 0.9383 0.9084 0.8374 0.7805 0.7348
0.7114 0.6498 0.5891 0.5481 0.4799 0.4136
0.3352 0.3922 0.4304 0.3343 0.2409 0.1541
0.1494 0.1224 0.1261 0.1681 0.1588 0.2213
0.2689 0.2465 0.2073 0.1831 0.1971 0.1915
0.1690 0.1662 0.1681 0.1821 0.1793 0.1896
0.2073 0.1999 0.2185 0.2419 0.2568 0.2615
0.2671 0.2465 0.1868 0.1392 0.0822 0.0440
0.0290 -0.0195 -0.0233 0.1121 0.1662 0.0673
0.0897 0.0897 0.0141 -0.0223 -0.1306 -0.2109
-0.2426 -0.2240 -0.2249 -0.2781 -0.2501 -0.2286
-0.2417 -0.2650 -0.2781 -0.3276 -0.3957 -0.3817
-0.3827 -0.3985 -0.4163 -0.4480 -0.4629 -0.4891
-0.5180 -0.5554 -0.5964 -0.6254 -0.6151 -0.5722
-0.5666 -0.5908 -0.6048 -0.6375 -0.6972 -0.7393
-0.7561 -0.7393 -0.7075 -0.6776 -0.6776 -0.7075
-0.7243 -0.7953 -0.8419 -0.8307 -0.8242 -0.7813
-0.7495 -0.7253 -0.7365 -0.7719 -0.7757 -0.7878
-0.8317 -0.8718 -0.8793 -0.8569 -0.8205 -0.7822
-0.7411 -0.7523 -0.7710 -0.7831 -0.8046 -0.8111
-0.8083 -0.7747 -0.7346 -0.7122 -0.7047 -0.6973
-0.7001 -0.6749 -0.6637 -0.7085 -0.7514 -0.7803
-0.7710 -0.7915 -0.7962 -0.7290 -0.6851 -0.6851
-0.7001 -0.6963 -0.7169 -0.7635 -0.7701 -0.7477
-0.7225 -0.7038 -0.7094 -0.7010 -0.7383 -0.7943
-0.7411 -0.7495 -0.7458 -0.6581 -0.6870 -0.6543
-0.6198 -0.6581 -0.6198 -0.6291 -0.6114 -0.5787
-0.6048 -0.5880 -0.5460 -0.4760 -0.4630 -0.4844
-0.4555 -0.4181 -0.3472 -0.3136 -0.2763 -0.1950
-0.1773 -0.1372 -0.0784 -0.0756 -0.0942 -0.1176
-0.1278 -0.1325 -0.0998 -0.0391 -0.0214 -0.0335
-0.0251 -0.0074 0.0178 0.0617 0.1326 0.2185
0.2932 0.3520 0.3669 0.3585 0.3595 0.3669
0.3744 0.4052 0.4659 0.5424 0.6208 0.6600
0.6675 0.6386 0.6003 0.5798 0.5518 0.5396
0.5704 0.6432 0.7161 0.7599 0.7515 0.7207
0.6563 0.5639 0.5163 0.4985 0.5041 0.5219
0.5331 0.5265 0.5097 0.5163 0.5135 0.5321
0.5854 0.6227 0.6190 0.5546 0.5163 0.5191
0.4855 0.4967 0.5574 0.6124 0.7039 0.8010
0.8514 0.8841 0.8971 0.8719 0.8701 0.9130
0.9802 1.0521 1.1156 1.1632 1.1912 1.1819
1.1305 1.0726 1.0306 1.0456 1.1175 1.2313
1.3275 1.3732 1.3807 1.3378 1.2948 1.2668
1.2360 1.1772 1.1520 1.1949 1.2584 1.3266
1.3760 1.4012 1.3900 1.3564 1.2985 1.2799
1.2799 1.2771 1.3378 1.3583 1.3592 1.3340
1.2677 1.2285 1.1613 1.1314 1.1576 1.1511
1.0988 1.0764 1.0605 1.0082 0.9812 0.9111
0.8215 0.7692 0.7319 0.7142 0.7132 0.7664
0.8085 0.8029 0.7861 0.6918 0.5480 0.4257
0.3258 0.2773 0.2857 0.3454 0.4248 0.4752
0.4845 0.4416 0.3884 0.3296 0.2315 0.1438
0.1391 0.1522 0.1335 0.1578 0.1858 0.1811
0.1531 0.1345 0.1466 0.1503 0.1410 0.1233
0.1037 0.0271 -0.0737 -0.1307 -0.2044 -0.2604
-0.2445 -0.2175 -0.2305 -0.2352 -0.2529 -0.2903
-0.3239 -0.3706 -0.3995 -0.4415 -0.5442 -0.7038
-0.8261 -0.8635 -0.8252 -0.7216 -0.6133 -0.5535
-0.5685 -0.6254 -0.7262 -0.8877 -1.0156 -1.0567
-1.0296 -0.9437 -0.8476 -0.7645 -0.7430 -0.7682
-0.8205 -0.9335 -1.0595 -1.1370 -1.1146 -1.0754
-1.0156 -0.9792 -1.0306 -1.0586 -1.1304 -1.2462
-1.3227 -1.3330 -1.3106 -1.3330 -1.3414 -1.3423
-1.3862 -1.4441 -1.5038 -1.5720 -1.6149 -1.6177
-1.5935 -1.5673 -1.5944 -1.6233 -1.7083 -1.7848
-1.7270 -1.7055 -1.7456 -1.7624 -1.7736 -1.7783
-1.7587 -1.7419 -1.7792 -1.7895 -1.7494 -1.7643
-1.8679 -1.9874 -1.9631 -1.8371 -1.7746 -1.7624
-1.7736 -1.7690 -1.7223 -1.6999 -1.7288 -1.7232
-1.6681 -1.6121 -1.5505 -1.5337 -1.5692 -1.6075
-1.6401 -1.6485 -1.6075 -1.6009 -1.6233 -1.6243
-1.6775 -1.7419 -1.7634 -1.7354 -1.6373 -1.5403
-1.4544 -1.4142 -1.4684 -1.5235 -1.6056 -1.6924
-1.7792 -1.8567 -1.8390 -1.8128 -1.7839 -1.7456
-1.7503 -1.7671 -1.8184 -1.8847 -1.8689 -1.8409
-1.8166 -1.7811 -1.7979 -1.8296 -1.8679 -1.9463
-2.0780 -2.1246 -2.0640 -1.9762 -1.7839 -1.6093
-1.5169 -1.4712 -1.4805 -1.5207 -1.6345 -1.7036
-1.6971 -1.7083 -1.6579 -1.5589 -1.4553 -1.3293
-1.2406 -1.1865 -1.1743 -1.2397 -1.2752 -1.2602
-1.2350 -1.2033 -1.1753 -1.0941 -1.0735 -1.0072
-0.8644 -0.8943 -0.8728 -0.8523 -0.9102 -0.8681
-0.8252 -0.7179 -0.5741 -0.4751 -0.3575 -0.2623
-0.2866 -0.3164 -0.2716 -0.3202 -0.2866 -0.0803
0.0103 0.1074 0.2922 0.3323 0.3025 0.2969
0.3071 0.2885 0.3389 0.4836 0.5638 0.7216
0.7673 0.7169 0.7524 0.6619 0.5918 0.5461
0.4724 0.4957 0.5190 0.6030 0.6973 0.7477
0.8644 0.9176 0.9400 0.9344 0.8803 0.7813
0.6413 0.5844 0.5237 0.5890 0.7720 0.8878
0.9848 1.0035 0.9550 0.8551 0.7477 0.6675
0.5872 0.5900 0.6329 0.6675 0.7151 0.7879
0.8794 0.8794 0.7953 0.6805 0.5629 0.4845
0.4957 0.5648 0.6385 0.7468 0.8476 0.9223
0.9354 0.9083 0.8598 0.7972 0.7720 0.7225
0.7300 0.8196 0.9167 1.0558 1.1519 1.2079
1.2332 1.1893 1.1687 1.1183 1.0380 1.0287
1.1025 1.2182 1.3284 1.3900 1.3657 1.2593
1.1818 1.1790 1.1398 1.1519 1.1846 1.1781
1.2350 1.2537 1.2154 1.1697 1.1127 1.0334
1.0128 1.0623 1.0726 1.0754 1.0371 0.9811
0.9522 0.9372 0.9428 0.9484 0.9503 0.9279
0.9186 0.9102 0.8999 0.9083 0.9288 0.9727
1.0156 1.0801 1.1575 1.2191 1.2350 1.1874
1.1342 1.0950 1.0586 1.0436 1.0800 1.1977
1.3526 1.4572 1.5039 1.4815 1.4077 1.3610
1.3648 1.4189 1.5235 1.6065 1.6598 1.7438
1.8222 1.8847 1.9361 1.9734 1.9967 2.0341
2.0938 2.1312 2.2273 2.2880 2.2497 2.2572
2.3272 2.4243 2.4560 2.4654 2.4915 2.4906
2.4943 2.4887 2.4710 2.4252 2.4075 2.4654
2.5111 2.5064 2.5176 2.5204 2.4906 2.4906
2.4812 2.4570 2.4532 2.4626 2.4383 2.4112
2.4084 2.3692 2.3487 2.3263 2.2796 2.2777
2.3384 2.4187 2.4271 2.3692 2.3067 2.2871
2.2964 2.2917 2.3207 2.3244 2.2478 2.1788
2.0901 2.0145 2.0313 2.0808 2.1396 2.1218
2.0378 1.9939 1.9809 1.9893 1.9874 1.9846
1.9697 1.9342 1.9071 1.8847 1.8875 1.8754
1.8324 1.8334 1.8334 1.8203 1.8436 1.7904
1.7148 1.6915 1.6653 1.6373 1.6448 1.7185
1.7316 1.7344 1.7886 1.8007 1.7746 1.6915
1.5935 1.5272 1.5393 1.5897 1.6047 1.6205
1.6131 1.5897 1.5206 1.3965 1.2639 1.1314
1.0166 0.9111 0.8719 0.8887 0.8905 0.8523
0.7664 0.6600 0.5563 0.4686 0.4014 0.3379
0.3043 0.3108 0.2894 0.2184 0.1055 0.0009
-0.1279 -0.1970 -0.1531 -0.1373 -0.0850 -0.0224
-0.0084 -0.0542 -0.1317 -0.2493 -0.3856 -0.3650
-0.3426 -0.3324 -0.2717 -0.3006 -0.3249 -0.3417
-0.3893 -0.4229 -0.4537 -0.4537 -0.4173 -0.3538
-0.3081 -0.3258 -0.3986 -0.4705 -0.5125 -0.5667
-0.5900 -0.5881 -0.5975 -0.5723 -0.5937 -0.6806
-0.7543 -0.8411 -0.9391 -0.9728 -0.9466 -0.9289
-0.9569 -1.0166 -1.0680 -1.1800 -1.3041 -1.3480
-1.4124 -1.4815 -1.4899 -1.4843 -1.4899 -1.5020
-1.5749 -1.6972 -1.8138 -1.8988 -1.9259 -1.9100
-1.8689 -1.8428 -1.8288 -1.8316 -1.8465 -1.8801
-1.9455 -1.9837 -2.0425 -2.1098 -2.1564 -2.1760
-2.1872 -2.2124 -2.1471 -2.0426 -1.9688 -1.9669
-2.0052 -2.0836 -2.2237 -2.3403 -2.4132 -2.3870
-2.3469 -2.2946 -2.2675 -2.3525 -2.4188 -2.5074
-2.6120 -2.6624 -2.6960 -2.7072 -2.6680 -2.6120
-2.6027 -2.6064 -2.6372 -2.6988 -2.7623 -2.8435
-2.9415 -3.0283 -3.0078 -2.9088 -2.8332 -2.7744
-2.7119 -2.6671 -2.6503 -2.6363 -2.6587 -2.6988
-2.7464 -2.8052 -2.8351 -2.8426 -2.8211 -2.8127
-2.8332 -2.8435 -2.8762 -2.9397 -2.9891 -3.0423
-3.0703 -3.0386 -2.9901 -2.9378 -2.9051 -2.9126
-2.9397 -2.9779 -2.9957 -2.9621 -2.9471 -2.9509
-2.9210 -2.8818 -2.8724 -2.8640 -2.8379 -2.7875
-2.7128 -2.6969 -2.6409 -2.4897 -2.4094 -2.4132
-2.4281 -2.4384 -2.4402 -2.4160 -2.3404 -2.2610
-2.2181 -2.1798 -2.0995 -2.0248 -2.0127 -1.9567
-1.8661 -1.8185 -1.8139 -1.8204 -1.8167 -1.8605
-1.9119 -1.9081 -1.8689 -1.7887 -1.6449 -1.4909
-1.3695 -1.2920 -1.2883 -1.3518 -1.4367 -1.4918
-1.4806 -1.3854 -1.2743 -1.1800 -1.0923 -1.0148
-0.9793 -0.9644 -0.9392 -0.9438 -0.9009 -0.8440
-0.8215 -0.7665 -0.7319 -0.7002 -0.6713 -0.6638
-0.6517 -0.6853 -0.7002 -0.6657 -0.6274 -0.5798
-0.5322 -0.5079 -0.5191 -0.5303 -0.5760 -0.5723
-0.4799 -0.4425 -0.4015 -0.3688 -0.3865 -0.4089
-0.4790 -0.5154 -0.4855 -0.4715 -0.4164 -0.3137
-0.2615 -0.2652 -0.2250 -0.1952 -0.2783 -0.3585
-0.4659 -0.5042 -0.4612 -0.4444 -0.3361 -0.2531
-0.2540 -0.2904 -0.2904 -0.2773 -0.2876 -0.2820
-0.3147 -0.3268 -0.3268 -0.3287 -0.3053 -0.3016
-0.3119 -0.2624 -0.2110 -0.1625 -0.0552 0.0121
0.0298 0.0242 -0.0178 -0.0626 -0.0617 -0.0281
0.0298 0.1353 0.2314 0.2837 0.3332 0.3332
0.3238 0.3266 0.3117 0.3481 0.3976 0.4704
0.5376 0.5479 0.5535 0.5152 0.4461 0.3929
0.3509 0.3537 0.3687 0.3780 0.3808 0.3453
0.3285 0.2790 0.2137 0.1997 0.2174 0.2856
0.3397 0.3584 0.3892 0.4359 0.4284 0.4368
0.5059 0.5432 0.5684 0.5955 0.6440 0.7234
0.8270 0.9269 1.0193 1.1173 1.2013 1.2984
1.3983 1.4776 1.5159 1.5514 1.6037 1.6485
1.7232 1.7764 1.8165 1.8548 1.8314 1.7764
1.7418 1.6942 1.6410 1.5999 1.5607 1.5691
1.5467 1.4982 1.4776 1.4720 1.4870 1.4730
1.4636 1.4506 1.4160 1.3992 1.3647 1.3171
1.2984 1.3255 1.3423 1.3899 1.4972 1.5551
1.5971 1.6858 1.7512 1.7409 1.7484 1.8781
1.9789 1.9397 1.9472 2.0359 2.1292 2.2412
2.3001 2.2823 2.2935 2.3561 2.3915 2.4111
2.4513 2.5194 2.6221 2.6996 2.7463 2.7761
2.7789 2.7976 2.7836 2.7771 2.8079 2.8443
2.8816 2.8816 2.9059 2.8900 2.8508 2.8536
2.8508 2.8676 2.8872 2.9040 2.8844 2.7920
2.7761 2.8331 2.7556 2.6641 2.6585 2.6258
2.6277 2.6436 2.5969 2.5969 2.6268 2.5857
2.5269 2.4886 2.4335 2.3943 2.4270 2.4793
2.4905 2.4475 2.4074 2.3887 2.3831 2.3673
2.3514 2.3691 2.3953 2.4410 2.4139 2.3365
2.3019 2.2580 2.2543 2.3122 2.3775 2.3710
2.3449 2.4513 2.4811 2.2982 2.2123 2.2608
2.2776 2.2776 2.2319 2.1778 2.1572 2.1077
2.0517 1.9743 1.8837 1.8660 1.8632 1.8594
1.8594 1.8632 1.8632 1.8100 1.7483 1.6307
1.5019 1.4440 1.3880 1.3964 1.4487 1.4982
1.5318 1.5159 1.4842 1.3824 1.2741 1.2181
1.1257 1.0547 1.0921 1.1966 1.2517 1.2433
1.1854 1.1220 1.0809 0.9922 0.9166 0.8708
0.8550 0.8811 0.8932 0.8811 0.8615 0.8475
0.8410 0.8438 0.8550 0.8699 0.8718 0.8848
0.9371 0.9857 1.0006 0.9875 0.9595 0.9521
0.9315 0.9381 1.0053 1.0883 1.1593 1.1686
1.1966 1.1957 1.1537 1.1574 1.1462 1.1481
1.1677 1.1481 1.1023 1.0351 0.9726 0.9026
0.7943 0.7289 0.7037 0.6813 0.6776 0.6244
0.5217 0.4274 0.3583 0.2855 0.2006 0.1194
0.0559 0.0270 -0.0123 -0.0543 -0.1084 -0.2008
-0.2260 -0.2354 -0.2746 -0.2578 -0.2344 -0.2298
-0.2232 -0.1971 -0.1794 -0.1840 -0.1747 -0.1980
-0.2102 -0.2111 -0.2195 -0.1943 -0.1663 -0.1420
-0.1121 -0.0991 -0.1103 -0.1467 -0.2148 -0.2634
-0.3278 -0.4323 -0.4753 -0.4557 -0.4650 -0.5332
-0.5817 -0.6153 -0.6825 -0.7329 -0.7609 -0.8085
-0.8636 -0.8832 -0.9000 -0.9486 -0.9962 -1.0130
-1.0597 -1.1185 -1.1353 -1.1437 -1.1493 -1.1521
-1.1483 -1.1371 -1.1483 -1.1875 -1.2025 -1.2193
-1.2538 -1.2734 -1.2660 -1.2678 -1.3098 -1.3313
-1.3854 -1.4713 -1.5609 -1.6552 -1.6972 -1.7579
-1.8027 -1.8419 -1.9063 -1.9428 -1.9997 -2.0342
-2.0753 -2.1547 -2.2107 -2.2237 -2.2713 -2.3442
-2.3470 -2.3778 -2.4086 -2.3964 -2.4160 -2.3880
-2.3246 -2.2984 -2.2685 -2.2443 -2.2191 -2.2032
-2.2088 -2.1892 -2.1892 -2.2032 -2.1687 -2.1547
-2.1883 -2.2247 -2.2629 -2.2704 -2.2984 -2.3460
-2.3255 -2.3302 -2.3572 -2.3414 -2.3572 -2.4002
-2.4366 -2.4534 -2.4609 -2.4889 -2.5309 -2.5383
-2.5421 -2.5757 -2.5990 -2.6364 -2.6401 -2.6373
-2.6942 -2.7325 -2.7474 -2.7540 -2.7288 -2.6802
-2.6364 -2.6065 -2.5747 -2.5570 -2.5654 -2.5934
-2.6009 -2.6102 -2.6392 -2.6289 -2.5943 -2.5729
-2.5710 -2.5803 -2.5999 -2.6550 -2.6952 -2.7194
-2.7278 -2.6961 -2.6644 -2.6280 -2.6410 -2.6924
-2.7726 -2.8669 -2.9304 -2.9724 -2.9911 -2.9958
-2.9836 -2.9724 -2.9537 -2.9818 -2.9668 -2.9276
-2.9351 -2.8949 -2.8996 -2.9043 -2.8847 -2.8427
-2.8109 -2.8072 -2.7409 -2.7082 -2.6728 -2.6177
-2.6158 -2.6009 -2.5962 -2.6084 -2.5981 -2.5514
-2.4833 -2.4123 -2.3236 -2.2714 -2.2088 -2.1677
-2.1696 -2.1463 -2.1491 -2.1444 -2.1500 -2.1425
-2.1285 -2.1164 -2.0688 -2.0557 -2.0753 -2.1052
-2.1519 -2.1836 -2.1603 -2.1145 -2.0436 -1.9960
-1.9745 -1.9605 -2.0193 -2.0744 -2.0959 -2.1015
-2.0660 -2.0184 -1.9941 -1.9652 -1.9437 -1.9680
-1.9932 -1.9876 -1.9773 -1.9344 -1.8448 -1.7617
-1.6991 -1.6450 -1.5890 -1.5339 -1.4639 -1.4023
-1.3855 -1.3640 -1.3127 -1.2352 -1.1960 -1.1661
-1.0970 -1.0382 -0.9999 -0.9719 -0.9430 -0.9355
-0.9458 -0.9495 -0.9393 -0.8982 -0.8356 -0.7834
-0.7376 -0.7096 -0.7376 -0.7675 -0.7946 -0.8011
-0.7778 -0.7442 -0.7022 -0.6405 -0.5621 -0.5211
-0.4809 -0.4454 -0.4361 -0.4165 -0.3782 -0.3148
-0.2447 -0.1579 -0.0804 -0.0076 0.0717 0.1240
0.1912 0.2453 0.2967 0.3546 0.4218 0.5366
0.6243 0.6850 0.7448 0.8279 0.9399 1.0211
1.0939 1.1256 1.0930 1.1032 1.1312 1.1443
1.2190 1.3049 1.3217 1.3291 1.3795 1.3889
1.3749 1.3506 1.3011 1.2871 1.2918 1.3030
1.3301 1.3590 1.3590 1.3702 1.3683 1.3441
1.3450 1.3338 1.3833 1.4496 1.5018 1.5943
1.6484 1.6680 1.6857 1.6969 1.7221 1.7697
1.8080 1.8948 2.0442 2.0946 2.1954 2.3392
2.3793 2.4465 2.5193 2.5660 2.6108 2.6855
2.7415 2.7798 2.8265 2.8349 2.8423 2.8265
2.8153 2.8153 2.8423 2.9002 2.9058 2.9011
2.8946 2.8769 2.8694 2.8666 2.8853 2.8853
2.8629 2.8675 2.8433 2.7695 2.7079 2.6640
2.6332 2.6566 2.7032 2.7490 2.7705 2.7359
2.7126 2.6706 2.5931 2.5436 2.5091 2.4932
2.5455 2.6136 2.6482 2.6958 2.7042 2.6771
2.6482 2.6258 2.6304 2.6435 2.6594 2.6752
2.7107 2.7452 2.7536 2.7294 2.7116 2.6715
2.6164 2.6295 2.6426 2.6258 2.6314 2.6351
2.6118 2.6015 2.5688 2.5436 2.5417 2.5324
2.5025 2.4923 2.5184 2.4801 2.4839 2.5025
2.4829 2.4605 2.4101 2.3830 2.3438 2.3261
2.3121 2.3112 2.3410 2.3438 2.3438 2.3121
2.2832 2.2197 2.1609 2.1301 2.0899 2.1030
2.0946 2.0899 2.0955 2.0881 2.0750 2.0311
2.0068 1.9630 1.9238 1.9443 1.9630 1.9854
2.0208 2.0078 1.9536 1.8892 1.8472 1.8481
1.8304 1.8220 1.8332 1.8481 1.8640 1.8379
1.8211 1.7921 1.7249 1.6913 1.6848 1.6932
1.6960 1.7137 1.7417 1.7212 1.7184 1.7165
1.6633 1.6101 1.5616 1.5149 1.5139 1.5298
1.5345 1.5242 1.4598 1.3814 1.3468 1.3328
1.2992 1.2964 1.3002 1.3020 1.3254 1.3300
1.3235 1.2796 1.2479 1.2050 1.1704 1.1564
1.1060 1.0631 1.0285 0.9949 0.9314 0.9016
0.8698 0.8119 0.7895 0.7363 0.7046 0.6719
0.6280 0.5832 0.5431 0.5702 0.5692 0.5478
0.5394 0.5347 0.5282 0.4964 0.4787 0.4693
0.4684 0.4600 0.4581 0.4955 0.4946 0.4862
0.5142 0.4731 0.3751 0.3022 0.2425 0.2061
0.1912 0.1604 0.1538 0.1389 0.1165 0.0530
-0.0609 -0.1645 -0.2821 -0.3251 -0.3577 -0.4053
-0.4044 -0.4800 -0.5528 -0.5612 -0.6117 -0.6779
-0.7330 -0.7797 -0.8180 -0.8590 -0.8805 -0.9010
-0.9272 -0.9356 -0.9757 -1.0168 -1.0159 -1.0532
-1.0961 -1.0999 -1.1036 -1.1083 -1.0989 -1.0924
-1.1596 -1.2324 -1.2791 -1.3687 -1.4014 -1.4023
-1.4201 -1.4070 -1.4257 -1.4658 -1.5246 -1.5844
-1.6525 -1.7272 -1.7235 -1.7515 -1.7972 -1.8233
-1.9204 -1.9867 -1.9662 -1.9540 -2.0110 -2.0315
-1.9848 -2.0138 -2.0502 -2.0465 -2.0661 -2.0586
-2.0707 -2.1053 -2.1435 -2.1837 -2.1958 -2.2089
-2.2145 -2.2154 -2.2042 -2.2117 -2.2154 -2.2416
-2.2836 -2.2836 -2.2742 -2.2276 -2.2490 -2.2658
-2.2752 -2.3106 -2.2668 -2.2668 -2.2276 -2.1725
-2.1809 -2.1725 -2.1893 -2.2378 -2.2966 -2.2500
-2.1799 -2.2108 -2.1809 -2.1043 -2.1407 -2.2238
-2.2173 -2.2201 -2.2294 -2.1977 -2.1566 -2.0847
-2.0567 -2.0362 -2.0222 -2.0455 -2.0754 -2.1239
-2.1370 -2.1314 -2.1071 -2.0381 -1.9951 -1.9652
-1.9391 -1.9559 -1.9587 -1.9400 -1.9214 -1.8915
-1.8691 -1.8542 -1.8215 -1.7879 -1.7720 -1.7225
-1.6572 -1.6488 -1.6572 -1.6497 -1.6376 -1.6115
-1.6105 -1.5769 -1.5293 -1.5116 -1.4612 -1.4388
-1.3986 -1.3407 -1.3398 -1.3118 -1.2791 -1.2297
-1.1746 -1.1354 -1.0383 -1.0093 -1.0075 -0.9869
-0.9953 -0.9851 -0.9823 -0.9561 -0.9244 -0.8992
-0.8647 -0.8441 -0.8198 -0.7788 -0.7433 -0.7349
-0.7060 -0.6546 -0.6257 -0.5911 -0.5445 -0.5351
-0.5239 -0.4913 -0.4651 -0.4222 -0.4016 -0.3736
-0.3400 -0.3214 -0.2728 -0.2644 -0.2551 -0.2065
-0.1683 -0.1440 -0.1132 -0.0945 -0.1001 -0.0889
-0.1020 -0.0908 -0.0404 -0.0124 0.0054 -0.0105
-0.0021 0.0632 0.0679 0.0231 0.0334 0.0548
0.0418 0.0203 -0.0133 -0.0236 -0.0114 -0.0086
-0.0198 -0.0544 -0.0899 -0.1216 -0.1487 -0.1589
-0.1589 -0.1692 -0.1711 -0.1449 -0.1431 -0.1505
-0.1533 -0.1664 -0.1589 -0.1580 -0.1449 -0.1347
-0.1692 -0.1832 -0.1776 -0.1813 -0.1608 -0.1328
-0.1141 -0.0777 -0.0469 -0.0507 -0.0525 -0.0404
-0.0367 -0.0254 0.0119 0.0287 0.0184 0.0175
0.0166 0.0044 -0.0002 0.0110 -0.0012 0.0016
0.0166 -0.0058 0.0044 0.0147 0.0184 0.0520
0.0474 0.0128 -0.0264 -0.0889 -0.1197 -0.1384
-0.1757 -0.1804 -0.1683 -0.1729 -0.1944 -0.1869
-0.1907 -0.2066 -0.1907 -0.1954 -0.1963 -0.1935
-0.1823 -0.1636 -0.1347 -0.1020 -0.0945 -0.0637
-0.0311 -0.0245 -0.0395 -0.0404 -0.0236 -0.0105
-0.0003 -0.0189 -0.0376 -0.0301 -0.0245 -0.0535
-0.0721 -0.0609 -0.0983 -0.1440 -0.1365 -0.1393
-0.1365 -0.1001 -0.0777 -0.1132 -0.1618 -0.1907
-0.2542 -0.2971 -0.2990 -0.2579 -0.1916 -0.1636
-0.1608 -0.1972 -0.2523 -0.3083 -0.3606 -0.3578
-0.3419 -0.3027 -0.2560 -0.2700 -0.2542 -0.2616
-0.3270 -0.3559 -0.3877 -0.4269 -0.4297 -0.3886
-0.3438 -0.3317 -0.3485 -0.4007 -0.4521 -0.4847
-0.5286 -0.5249 -0.4586 -0.3895 -0.3522 -0.3317
-0.3205 -0.3681 -0.3821 -0.3886 -0.4119 -0.3261
-0.2476 -0.2028 -0.1618 -0.1338 -0.0992 -0.1104
-0.0861 -0.0301 0.0268 0.0632 0.0707 0.1379
0.1827 0.2154 0.2527 0.2714 0.3237 0.3451
0.3666 0.3993 0.4077 0.4319 0.4553 0.4618
0.4805 0.5001 0.4758 0.4487 0.4422 0.4441
0.4543 0.4740 0.4768 0.4562 0.4123 0.3890
0.3675 0.3134 0.2826 0.2518 0.2350 0.2172
0.2042 0.2051 0.1920 0.1724 0.1407 0.1174
0.0688 0.0473 0.0567 0.0240 0.0352 0.0977
0.1192 0.0968 0.0688 0.0445 0.0203 -0.0021
-0.0105 -0.0143 0.0128 0.0735 0.1257 0.1239
0.0968 0.1043 0.0921 0.0585 0.0184 0.0025
0.0081 0.0184 0.0697 0.1089 0.1360 0.1902
0.2368 0.2434 0.2303 0.1874 0.1612 0.1612
0.1958 0.2620 0.3003 0.3731 0.4263 0.4049
0.3843 0.3666 0.3619 0.3759 0.4226 0.4823
0.5075 0.5243 0.5561 0.5701 0.5570 0.5813
0.6093 0.6354 0.6784 0.6905 0.7344 0.7549
0.7195 0.7101 0.6980 0.7409 0.8128 0.8212
0.8595 0.9146 0.9258 0.9220 0.9295 0.9379
0.9528 0.9584 0.9650 1.0284 1.0695 1.1143
1.1787 1.1993 1.2077 1.1797 1.1759 1.1965
1.1927 1.2058 1.2329 1.2786 1.2833 1.2842
1.3309 1.3253 1.3048 1.3029 1.2655 1.2730
1.3262 1.3346 1.3850 1.4513 1.4569 1.4410
1.4121 1.3878 1.3701 1.3794 1.3962 1.4289
1.4410 1.4121 1.4186 1.4289 1.3981 1.3412
1.3365 1.3524 1.3440 1.3636 1.4018 1.4401
1.4588 1.4494 1.4345 1.4112 1.3701 1.3878
1.4522 1.4588 1.4289 1.4466 1.4718 1.4952
1.5353 1.5213 1.5064 1.5045 1.4961 1.5008
1.5148 1.5391 1.5811 1.5988 1.5792 1.6007
1.6249 1.6436 1.6417 1.6231 1.6333 1.6324
1.6324 1.6548 1.6865 1.6576 1.6203 1.6352
1.6287 1.5951 1.5400 1.5306 1.5727 1.5867
1.6053 1.5988 1.5633 1.5783 1.5362 1.4653
1.4364 1.3906 1.4074 1.4401 1.4457 1.4858
1.4970 1.4681 1.4196 1.3813 1.3645 1.3467
1.3747 1.4130 1.4056 1.3981 1.4578 1.5082
1.5204 1.5204 1.4756 1.4718 1.4756 1.4952
1.5297 1.4896 1.4709 1.5120 1.5390 1.5222
1.5120 1.4709 1.4074 1.4438 1.4896 1.4998
1.5101 1.5082 1.4970 1.4420 1.3850 1.3449
1.3038 1.2777 1.2394 1.2235 1.2375 1.2272
1.1955 1.1628 1.1255 1.0798 1.0592 1.0377
1.0153 0.9985 0.9444 0.9052 0.9509 0.9771
0.8809 0.8268 0.8996 0.9379 0.8875 0.8641
0.8352 0.7736 0.8044 0.8081 0.7540 0.7530
0.7474 0.7278 0.7073 0.6942 0.6503 0.5794
0.5495 0.5393 0.5000 0.4608 0.4655 0.4571
0.4198 0.3675 0.2928 0.2097 0.1341 0.0753
0.0258 -0.0246 -0.0759 -0.1273 -0.1469 -0.1861
-0.2916 -0.3971 -0.4568 -0.4689 -0.4904 -0.5156
-0.5520 -0.5810 -0.6006 -0.6454 -0.6771 -0.7116
-0.7387 -0.7546 -0.7667 -0.8069 -0.8414 -0.8461
-0.8974 -0.9441 -0.9534 -0.9833 -1.0197 -1.0468
-1.0757 -1.1187 -1.1579 -1.1719 -1.2251 -1.2895
-1.3016 -1.2960 -1.2914 -1.3100 -1.3278 -1.3044
-1.2792 -1.3063 -1.3502 -1.3520 -1.3623 -1.3726
-1.3903 -1.4099 -1.4360 -1.4893 -1.4893 -1.5079
-1.5471 -1.5630 -1.5583 -1.5266 -1.5733 -1.6321
-1.6349 -1.6517 -1.6629 -1.6937 -1.7357 -1.7357
-1.7282 -1.7432 -1.7721 -1.8020 -1.8029 -1.7973
-1.8216 -1.8132 -1.8001 -1.8020 -1.7973 -1.7926
-1.7777 -1.7534 -1.7068 -1.6377 -1.5947 -1.6106
-1.6228 -1.6153 -1.5985 -1.5770 -1.5537 -1.5303
-1.5229 -1.4939 -1.4575 -1.4389 -1.4258 -1.3996
-1.3698 -1.3875 -1.4146 -1.4081 -1.4090 -1.4323
-1.4230 -1.3912 -1.3632 -1.3670 -1.3959 -1.3922
-1.4230 -1.4622 -1.4790 -1.4781 -1.4379 -1.4286
-1.4137 -1.4062 -1.4491 -1.4715 -1.4641 -1.4594
-1.4902 -1.5247 -1.5089 -1.4799 -1.4827 -1.4949
-1.5023 -1.5023 -1.5107 -1.4921 -1.4426 -1.4034
-1.3604 -1.3399 -1.3371 -1.3436 -1.3642 -1.3604
-1.3231 -1.2867 -1.2466 -1.2148 -1.1943 -1.1737
-1.1756 -1.1644 -1.1644 -1.1560 -1.1233 -1.0767
-1.0319 -1.0216 -1.0113 -0.9777 -0.9394 -0.9534
-0.9413 -0.8834 -0.8797 -0.8601 -0.8097 -0.8078
-0.8209 -0.8134 -0.8162 -0.8022 -0.7733 -0.7779
-0.7649 -0.7546 -0.7882 -0.8050 -0.7817 -0.7621
-0.7798 -0.7985 -0.8069 -0.8078 -0.8069 -0.8330
-0.8545 -0.8713 -0.8909 -0.9124 -0.9366 -0.9254
-0.9264 -0.9329 -0.9301 -0.9703 -0.9796 -0.9609
-0.9301 -0.8937 -0.8956 -0.9012 -0.9068 -0.8918
-0.8629 -0.8582 -0.8097 -0.7593 -0.7033 -0.6249
-0.6025 -0.5716 -0.5324 -0.4960 -0.4596 -0.4382
-0.4074 -0.3765 -0.3355 -0.3177 -0.2869 -0.2701
-0.2748 -0.2748 -0.2963 -0.2851 -0.2823 -0.2655
-0.2347 -0.1955 -0.1413 -0.1236 -0.1068 -0.1320
-0.1814 -0.1749 -0.1740 -0.2001 -0.1786 -0.1516
-0.1488 -0.1245 -0.1292 -0.1656 -0.2085 -0.2421
-0.2337 -0.2319 -0.2281 -0.2160 -0.2281 -0.2300
-0.2655 -0.3084 -0.3159 -0.3019 -0.2692 -0.2608
-0.2552 -0.2599 -0.2673 -0.2580 -0.2393 -0.2169
-0.1815 -0.1572 -0.1843 -0.1693 -0.1581 -0.2029
-0.2197 -0.2440 -0.2524 -0.2337 -0.2263 -0.2253
-0.1973 -0.1460 -0.1637 -0.1805 -0.1507 -0.1114
-0.0582 -0.0312 -0.0265 -0.0638 -0.0797 -0.0545
-0.0396 0.0472 0.1201 0.1359 0.1387 0.0743
0.0174 0.0136 0.0220 0.0762 0.1499 0.2087
0.2620 0.2526 0.2013 0.1723 0.1667 0.1891
0.2508 0.3096 0.3189 0.3142 0.3282 0.3273
0.3180 0.2974 0.2722 0.2778 0.2890 0.3394
0.4010 0.4122 0.4244 0.4160 0.3852 0.3702
0.3786 0.3945 0.3898 0.3973 0.4328 0.4542
0.4767 0.5009 0.5140 0.5065 0.5000 0.5271
0.5336 0.5476 0.5709 0.5765 0.5831 0.5383
0.5131 0.5355 0.5597 0.5756 0.5756 0.5877
0.5653 0.5299 0.5121 0.4953 0.4729 0.4309
0.4365 0.4580 0.4738 0.5364 0.5625 0.5215
0.4794 0.4458 0.3777 0.3189 0.3600 0.4160
0.4654 0.5205 0.5383 0.5625 0.5495 0.5168
0.4869 0.4533 0.4878 0.5728 0.6279 0.6568
0.6858 0.6755 0.6493 0.6120 0.5504 0.5140
0.5112 0.5261 0.5271 0.4897 0.4412 0.3805
0.3105 0.2647 0.2461 0.2451 0.2209 0.2087
0.2059 0.1677 0.1200 0.0706 0.0743 0.0874
0.0930 0.1238 0.1322 0.1508 0.1695 0.1546
0.1340 0.1042 0.1126 0.1200 0.1135 0.1714
0.2162 0.2171 0.2367 0.2423 0.2330 0.2395
0.2199 0.2162 0.2386 0.2181 0.1938 0.1396
0.0622 0.0482 0.0594 0.0771 0.0818 0.0808
0.0631 -0.0135 -0.0807 -0.0984 -0.1227 -0.1628
-0.1619 -0.1525 -0.1497 -0.1311 -0.1311 -0.1749
-0.1890 -0.1665 -0.1712 -0.1479 -0.0984 -0.0704
-0.0723 -0.0685 -0.0965 -0.1507 -0.1712 -0.1946
-0.1750 -0.1759 -0.1666 -0.1348 -0.1451 -0.0975
-0.1031 -0.1619 -0.2104 -0.2916 -0.3196 -0.3215
-0.3318 -0.3159 -0.2907 -0.2767 -0.2767 -0.2907
-0.3570 -0.4326 -0.4662 -0.4625 -0.4494 -0.4307
-0.3682 -0.3458 -0.3766 -0.4111 -0.4597 -0.4802
-0.4774 -0.4485 -0.3682 -0.3094 -0.2795 -0.2590
-0.2562 -0.2552 -0.2655 -0.2814 -0.2898 -0.2674
-0.2375 -0.2123 -0.1712 -0.1311 -0.1059 -0.1358
-0.1535 -0.1330 -0.1115 -0.0723 -0.0424 -0.0303
0.0080 0.0734 0.1490 0.1994 0.2162 0.2554
0.2657 0.2890 0.3525 0.3618 0.3963 0.4327
0.4243 0.4561 0.5028 0.5382 0.5774 0.6241
0.6773 0.7109 0.7445 0.7707 0.7576 0.7389
0.7548 0.7847 0.8108 0.8379 0.8136 0.7623
0.7380 0.6951 0.6708 0.7063 0.7567 0.7996
0.8136 0.8080 0.7828 0.7445 0.7511 0.7912
0.8538 0.9182 0.9322 0.9434 0.9527 0.9387
0.9116 0.8930 0.8799 0.9303 1.0302 1.0713
1.0871 1.0927 1.1170 1.1375 1.1478 1.1403
1.1049 1.1403 1.1814 1.1254 1.0918 1.1609
1.1870 1.1590 1.1683 1.1702 1.1366 1.1366
1.1823 1.1907 1.1590 1.1553 1.1590 1.1245
1.0871 1.1058 1.1207 1.0769 1.0759 1.0909
1.0787 1.0806 1.0983 1.1179 1.0797 1.0208
1.0003 0.9826 0.9284 0.8902 0.8911 0.9079
0.9107 0.8845 0.8855 0.8481 0.8192 0.7763
0.7343 0.8537 0.7725 0.5980 0.7193 0.8080
0.8267 0.8145 0.6596 0.5952 0.6157 0.6101
0.5625 0.4887 0.4953 0.5223 0.4962 0.4514
0.4439 0.3954 0.3693 0.3973 0.3543 0.3188
0.2862 0.2918 0.3272 0.3328 0.3356 0.3496
0.3898 0.4066 0.3870 0.4309 0.4803 0.3478
0.3151 0.4691 0.5242 0.5503 0.5457 0.5223
0.5223 0.5270 0.5690 0.5382 0.4971 0.5139
0.5354 0.5662 0.5457 0.4934 0.4355 0.3823
0.3954 0.4038 0.3664 0.3431 0.3067 0.2815
0.2703 0.2600 0.2656 0.2404 0.2021 0.1657
0.2180 0.3394 0.2292 0.0855 0.1769 0.2292
0.2077 0.2227 0.1984 0.1620 0.1909 0.2077
0.1835 0.1433 0.0995 0.1013 0.0883 0.0696
0.0462 0.0005 0.0089 0.0528 0.0481 0.0080
-0.0070 -0.0359 -0.0686 -0.1115 -0.1610 -0.1461
-0.1311 -0.0910 -0.0714 -0.0919 -0.0863 -0.0135
-0.0387 -0.2777 -0.3234 -0.2151 -0.1797 -0.1927
-0.2011 -0.1526 -0.1040 -0.0452 -0.0284 -0.0994
-0.1638 -0.1517 -0.1601 -0.1927 -0.1797 -0.1433
-0.1069 -0.1153 -0.1694 -0.1955 -0.2058 -0.2049
-0.1937 -0.2049 -0.2282 -0.2534 -0.2329 -0.2347
-0.2235 -0.2067 -0.2282 -0.3066 -0.4317 -0.3766
-0.2852 -0.2721 -0.2534 -0.2655 -0.2674 -0.2740
-0.2926 -0.3038 -0.3673 -0.4121 -0.3916 -0.4140
-0.4364 -0.4046 -0.3804 -0.4121 -0.4644 -0.4905
-0.4989 -0.5111 -0.5195 -0.4924 -0.4831 -0.4616
-0.4812 -0.4719 -0.5092 -0.5512 -0.3589 -0.3533
-0.3822 -0.4084 -0.4933 -0.3617 -0.3141 -0.3141
-0.2936 -0.3626 -0.4093 -0.3421 -0.3421 -0.3692
-0.3430 -0.3710 -0.3692 -0.3570 -0.3570 -0.3570
-0.2954 -0.2768 -0.3272 -0.3505 -0.3860 -0.4411
-0.4803 -0.4513 -0.4392 -0.4252 -0.4308 -0.4373
-0.5223 -0.6296 -0.5512 -0.5783 -0.5914 -0.6278
-0.6875 -0.5736 -0.6016 -0.6698 -0.6838 -0.7585
-0.8014 -0.7939 -0.8453 -0.8546 -0.8350 -0.8723
-0.8873 -0.9106 -0.9171 -0.9134 -0.9218 -0.9573
-0.9760 -0.9433 -0.9340 -0.9433 -0.9517 -0.9732
-0.9676 -0.9405 -0.9171 -0.8985 -0.9069 -0.9293
-0.9928 -0.9629 -0.8919 -0.9031 -0.9545 -1.0441
-1.0236 -0.9797 -1.0058 -1.0105 -1.0282 -1.0282
-0.9806 -0.9778 -0.9890 -1.0189 -1.0880 -1.0889
-1.0674 -1.0749 -1.0544 -1.0320 -1.0684 -1.1365
-1.1720 -1.1813 -1.2019 -1.2112 -1.2019 -1.1692
-1.1477 -1.1365 -1.1412 -1.1776 -1.1813 -1.1897
-1.2075 -1.2868 -1.3335 -1.2579 -1.2271 -1.2196
-1.2476 -1.3204 -1.3914 -1.4035 -1.3736 -1.4044
-1.4343 -1.4250 -1.4128 -1.4240 -1.4614 -1.5053
-1.5389 -1.5697 -1.5473 -1.5127 -1.5221 -1.5510
-1.5902 -1.6453 -1.6668 -1.6369 -1.6854 -1.6574
-1.5482 -1.5687 -1.6014 -1.6014 -1.5566 -1.4661
-1.4166 -1.3867 -1.4175 -1.4894 -1.4941 -1.4726
-1.4539 -1.4063 -1.3447 -1.2924 -1.2868 -1.2999
-1.2775 -1.2840 -1.3027 -1.2719 -1.2252 -1.1767
-1.1375 -1.0992 -1.0787 -1.0731 -1.0899 -1.0759
-0.9797 -0.9125 -0.8584 -0.7967 -0.7295 -0.6894
-0.7062 -0.7146 -0.7566 -0.7482 -0.6511 -0.5867
-0.5354 -0.4784 -0.4243 -0.4056 -0.4103 -0.3720
-0.3104 -0.2385 -0.1984 -0.1582 -0.0882 -0.0630
-0.0518 -0.0191 0.0630 0.1582 0.1844 0.2105
0.2581 0.3010 0.3356 0.3655 0.4187 0.4327
0.4345 0.5232 0.6110 0.6474 0.6941 0.7342
0.7603 0.7725 0.7902 0.8555 0.9582 1.0563
1.1113 1.1627 1.2131 1.1757 1.1571 1.2261
1.2766 1.3335 1.4138 1.4763 1.5174 1.5286
1.5221 1.5202 1.5183 1.5407 1.5995 1.6770
1.7769 1.8581 1.8917 1.8703 1.8283 1.8030
1.7918 1.8152 1.8740 1.9645 2.0066 1.9711
1.9711 1.9720 1.9235 1.9039 1.9477 1.9748
1.9599 2.0159 2.0672 2.0598 2.0878 2.0971
2.0971 2.1167 2.0971 2.0812 2.0878 2.0766
2.0700 2.0579 2.0551 2.0616 2.0476 2.0308
2.0318 2.0093 1.9375 1.8908 1.8525 1.8320
1.8357 1.8133 1.7974 1.7666 1.7666 1.8161
1.8413 1.8693 1.8917 1.8647 1.8301 1.7881
1.7358 1.7256 1.7190 1.7013 1.7060 1.7013
1.6761 1.6387 1.6135 1.5939 1.5659 1.5333
1.5062 1.4875 1.4520 1.4539 1.4604 1.4418
1.4334 1.4110 1.3867 1.3419 1.3120 1.2915
1.2308 1.1963 1.1729 1.1841 1.2345 1.2476
1.2532 1.2224 1.1393 1.0796 1.0338 0.9788
0.9601 0.9507 0.9330 0.9339 0.9031 0.8742
0.8322 0.7706 0.7276 0.6436 0.5736 0.5307
0.5027 0.5167 0.5269 0.5223 0.4989 0.4383
0.3720 0.3356 0.3169 0.3374 0.3673 0.3477
0.3225 0.2917 0.2544 0.2385 0.2366 0.2506
0.2814 0.2852 0.2917 0.3300 0.2992 0.2170
0.1769 0.1554 0.1218 0.0910 0.1171 0.1638
0.2030 0.2497 0.2712 0.2861 0.2870 0.2534
0.1377 0.0714 0.1395 0.1722 0.2077 0.1927
0.1517 0.1881 0.1685 0.1498 0.1591 0.1563
0.1479 0.1031 0.0798 0.0807 0.0630 0.0424
-0.0005 -0.0453 -0.0630 -0.0873 -0.0817 -0.0845
-0.1144 -0.1471 -0.2115 -0.2367 -0.2451 -0.2367
-0.2217 -0.2516 -0.2479 -0.2320 -0.2703 -0.3991
-0.3944 -0.2852 -0.3291 -0.3711 -0.4038 -0.4439
-0.4439 -0.4542 -0.4103 -0.3543 -0.3086 -0.2834
-0.3123 -0.3020 -0.2983 -0.2862 -0.2759 -0.3534
-0.3795 -0.3590 -0.3674 -0.3440 -0.3058 -0.3198
-0.3552 -0.3879 -0.4113 -0.4038 -0.3926 -0.3646
-0.3422 -0.3188 -0.2703 -0.2507 -0.3440 -0.4561
-0.4075 -0.3599 -0.4374 -0.4915 -0.4505 -0.4411
-0.4607 -0.3823 -0.3412 -0.3422 -0.3011 -0.3179
-0.3720 -0.3739 -0.3674 -0.3870 -0.3889 -0.3861
-0.3889 -0.3851 -0.3786 -0.3870 -0.3917 -0.4029
-0.4281 -0.4523 -0.5055 -0.4953 -0.4430 -0.4514
-0.4803 -0.4906 -0.4981 -0.5046 -0.4925 -0.5307
-0.5737 -0.5475 -0.5457 -0.5476 -0.5279 -0.5513
-0.5289 -0.4925 -0.5149 -0.5345 -0.5560 -0.5541
-0.5784 -0.5924 -0.5233 -0.4878 -0.4990 -0.5046
-0.5223 -0.5289 -0.5242 -0.5279 -0.5401 -0.5364
-0.4859 -0.4225 -0.3851 -0.4281 -0.3609 -0.2404
-0.2507 -0.2526 -0.2246 -0.1518 -0.1368 -0.1546
-0.1620 -0.1303 -0.1032 -0.1415 -0.0780 -0.0761
-0.0957 -0.0612 -0.0873 -0.0967 -0.1256 -0.1826
-0.1994 -0.1900 -0.2040 -0.2358 -0.2582 -0.2796
-0.3095 -0.3273 -0.3422 -0.3553 -0.3590 -0.3655
-0.3907 -0.5196 -0.5485 -0.4318 -0.5018 -0.5998
-0.5382 -0.4495 -0.4365 -0.4701 -0.4990 -0.4962
-0.4271 -0.4346 -0.4589 -0.4281 -0.4383 -0.4159
-0.4010 -0.3973 -0.3693 -0.3413 -0.3161 -0.3189
-0.3170 -0.3039 -0.2628 -0.2414 -0.2348 -0.1956
-0.1788 -0.1695 -0.1583 -0.1602 -0.1611 -0.1247
-0.0817 -0.0603 -0.0332 -0.0920 -0.0743 0.0508
-0.0481 -0.2031 -0.1322 -0.0425 -0.0808 -0.1023
-0.0967 -0.0509 -0.0267 -0.0836 -0.0780 -0.0743
-0.0752 -0.0537 -0.0818 -0.0724 -0.0369 -0.0631
-0.1070 -0.1219 -0.1406 -0.1798 -0.2208 -0.2227
-0.2218 -0.2386 -0.2460 -0.2601 -0.2741 -0.3413
-0.3506 -0.3338 -0.4075 -0.3553 -0.3207 -0.4262
-0.4570 -0.3814 -0.4458 -0.5392 -0.4794 -0.4916
-0.4300 -0.3721 -0.3935 -0.3786 -0.4038 -0.3814
-0.3665 -0.3655 -0.3515 -0.3525 -0.3571 -0.3777
-0.3917 -0.4085 -0.4001 -0.4038 -0.4141 -0.4048
-0.3973 -0.3991 -0.4346 -0.4253 -0.4122 -0.4477
-0.4878 -0.5102 -0.5448 -0.5261 -0.5242 -0.6148
-0.5831 -0.5971 -0.7539 -0.7352 -0.6549 -0.8286
-0.8799 -0.7558 -0.7604 -0.7221 -0.6913 -0.7221
-0.7520 -0.7679 -0.8090 -0.8622 -0.8743 -0.9004
-0.9098 -0.9116 -0.9256 -0.9425 -0.9891 -1.0311
-1.0573 -1.1021 -1.1376 -1.1646 -1.1936 -1.2206
-1.2458 -1.2654 -1.3056 -1.3299 -1.3028 -1.2608
-1.2944 -1.4008 -1.4120 -1.4241 -1.4998 -1.3831
-1.3355 -1.4755 -1.4353 -1.3784 -1.3784 -1.3327
-1.3392 -1.4008 -1.4055 -1.3644 -1.3756 -1.3532
-1.3299 -1.3336 -1.3383 -1.3411 -1.2981 -1.2823
-1.2841 -1.2570 -1.2374 -1.2122 -1.2104 -1.2188
-1.2150 -1.2328 -1.2122 -1.1581 -1.1497 -1.1880
-1.1656 -1.0806 -1.0573 -1.0853 -1.1030 -1.0909
-1.0760 -1.0872 -1.0013 -0.9247 -1.0218 -1.0377
-0.9985 -0.9742 -0.9014 -0.8865 -0.8435 -0.8034
-0.8127 -0.7940 -0.8108 -0.8388 -0.8472 -0.8370
-0.8108 -0.8099 -0.7950 -0.8090 -0.8314 -0.8080
-0.8034 -0.7632 -0.6932 -0.7511 -0.8566 -0.7492
-0.6120 -0.5756 -0.5308 -0.5569 -0.5345 -0.4598
-0.4076 -0.3712 -0.3917 -0.3600 -0.3926 -0.4617
-0.2956 -0.1938 -0.2816 -0.2377 -0.1266 -0.0902
-0.0771 -0.0706 -0.0743 -0.0640 -0.0332 0.0340
0.1003 0.1432 0.1535 0.1423 0.1600 0.1880
0.2384 0.2347 0.2141 0.2113 0.1964 0.2487
0.3056 0.3588 0.4008 0.4214 0.4699 0.5185
0.5353 0.5185 0.5586 0.6230 0.6912 0.6865
0.6454 0.8583 0.9955 0.9012 0.8667 0.8965
0.9404 0.9581 0.9973 1.0319 1.0636 1.1252
1.1336 1.1066 1.1084 1.1448 1.1616 1.2036
1.2559 1.2662 1.2858 1.2765 1.2485 1.2513
1.2634 1.2625 1.2895 1.3297 1.3269 1.3287
1.3222 1.3035 1.2858 1.3073 1.3801 1.4613
1.4258 1.2456 1.3035 1.4884 1.4379 1.3885
1.4379 1.4473 1.5154 1.6078 1.5761 1.5761
1.6237 1.5985 1.5789 1.5780 1.5696 1.5640
1.5798 1.6032 1.5892 1.5742 1.5341 1.4781
1.4706 1.4501 1.4295 1.4183 1.3838 1.3633
1.3362 1.2905 1.2736 1.2484 1.2214 1.2195
1.1952 1.1980 1.1588 1.0533 1.0029 1.0113
1.0571 1.0487 1.0048 0.9983 0.9899 0.9684
0.9320 0.9096 0.8881 0.8592 0.8526 0.8284
0.8097 0.8032 0.7546 0.6846 0.6501 0.6267
0.5857 0.5502 0.5408 0.5576 0.5604 0.5483
0.4942 0.4288 0.4167 0.3924 0.3635 0.3131
0.2757 0.2832 0.2431 0.2066 0.1441 0.0508
0.0508 0.0050 -0.0902 -0.1331 -0.1817 -0.2097
-0.2368 -0.2816 -0.3030 -0.3021 -0.3227 -0.3619
-0.3777 -0.3740 -0.4039 -0.4328 -0.4459 -0.4421
-0.4076 -0.4272 -0.4281 -0.4319 -0.4580 -0.4076
-0.3992 -0.4160 -0.4029 -0.3945 -0.3945 -0.4085
-0.3777 -0.3861 -0.4197 -0.3768 -0.3525 -0.3469
-0.3488 -0.3889 -0.4113 -0.3684 -0.3199 -0.3376
-0.3357 -0.3012 -0.3329 -0.3675 -0.3647 -0.4020
-0.4169 -0.3656 -0.3339 -0.2891 -0.2358 -0.2386
-0.2424 -0.2256 -0.2218 -0.2032 -0.1472 -0.1201
-0.1089 -0.0846 -0.0631 -0.0230 0.0293 0.0703
0.0554 0.0759 0.1385 0.1469 0.1852 0.2169
0.2328 0.2963 0.3523 0.3840 0.4045 0.4260
0.4447 0.4643 0.4811 0.4830 0.4587 0.4465
0.4661 0.4549 0.4568 0.5259 0.6006 0.5875
0.6015 0.7117 0.7714 0.8162 0.8778 0.8946
0.9320 0.9721 0.9618 0.9870 1.0608 1.1261
1.1504 1.1597 1.1700 1.1840 1.2129 1.2269
1.2381 1.2447 1.2699 1.2792 1.2718 1.2820
1.2699 1.2596 1.2634 1.2671 1.2409 1.2344
1.2437 1.2559 1.2764 1.2774 1.3278 1.3259
1.2783 1.2559 1.1971 1.1803 1.2148 1.2540
1.2475 1.2167 1.2465 1.2643 1.2428 1.1980
1.1551 1.1681 1.1887 1.1616 1.1308 1.1243
1.1056 1.0841 1.0869 1.0935 1.0841 1.0738
1.0365 0.9833 0.9432 0.8769 0.8274 0.8041
0.7929 0.8190 0.8078 0.7723 0.7144 0.6416
0.6472 0.6276 0.5492 0.5137 0.5212 0.5380
0.5175 0.4829 0.4624 0.4391 0.4363 0.4111
0.3457 0.3000 0.2645 0.2514 0.2598 0.2729
0.2981 0.2850 0.2729 0.2850 0.2972 0.2934
0.2393 0.2169 0.1926 0.1758 0.1982 0.2262
0.2570 0.1823 0.2066 0.2738 0.1851 0.1263
0.1478 0.2402 0.2654 0.2440 0.2430 0.2122
0.2094 0.2300 0.2552 0.2356 0.2300 0.2682
0.2757 0.2766 0.2608 0.2496 0.2738 0.2570
0.2393 0.2412 0.2113 0.2355 0.2785 0.2981
0.3233 0.3046 0.2841 0.2682 0.2421 0.2692
0.2608 0.2225 0.1954 0.1375 0.1655 0.2141
0.1730 0.1058 0.0703 0.0358 -0.0044 0.0143
0.0330 0.0190 0.0208 0.0404 0.0638 0.0769
0.0638 0.0432 -0.0016 -0.0473 -0.0501 -0.0576
-0.0818 -0.0837 -0.0669 -0.0594 -0.0604 -0.0781
-0.0744 -0.0594 -0.0613 -0.0828 -0.1201 -0.1071
-0.1117 -0.1276 -0.1304 -0.1631 -0.1640 -0.1229
-0.1351 -0.2321 -0.2620 -0.2601 -0.2844 -0.3190
-0.3712 -0.3992 -0.4067 -0.3619 -0.3236 -0.3264
-0.3610 -0.4216 -0.4795 -0.5131 -0.5225 -0.5374
-0.5309 -0.5467 -0.5514 -0.4935 -0.4833 -0.5066
-0.5523 -0.6186 -0.6168 -0.5775 -0.5411 -0.5281
-0.5346 -0.5047 -0.4767 -0.5346 -0.6270 -0.6298
-0.5971 -0.5925 -0.6102 -0.6354 -0.6289 -0.6084
-0.5542 -0.5523 -0.6326 -0.6672 -0.6718 -0.6662
-0.6336 -0.6112 -0.6093 -0.5850 -0.5579 -0.5794
-0.5831 -0.5458 -0.5355 -0.5514 -0.5738 -0.5785
-0.5803 -0.5766 -0.5374 -0.5738 -0.5327 -0.4506
-0.4926 -0.5094 -0.5766 -0.5561 -0.4590 -0.4450
-0.4030 -0.4133 -0.4553 -0.4338 -0.4497 -0.4889
-0.4487 -0.4217 -0.4095 -0.3787 -0.3694 -0.3712
-0.3292 -0.2919 -0.3311 -0.3040 -0.3022 -0.3432
-0.3470 -0.3815 -0.3358 -0.2928 -0.3106 -0.2956
-0.2639 -0.2256 -0.2462 -0.2499 -0.2051 -0.2210
-0.2340 -0.2564 -0.2527 -0.1976 -0.1967 -0.1930
-0.2098 -0.2462 -0.1799 -0.1239 -0.1565 -0.1649
-0.1967 -0.2210 -0.1762 -0.1696 -0.1827 -0.1930
-0.2079 -0.2378 -0.2555 -0.2676 -0.2910 -0.2947
-0.3199 -0.3302 -0.3162 -0.3078 -0.3218 -0.3806
-0.3890 -0.3899 -0.4142 -0.3871 -0.4226 -0.4431
-0.4058 -0.4301 -0.4245 -0.4133 -0.4469 -0.4245
-0.4049 -0.4450 -0.4441 -0.4627 -0.5169 -0.5066
-0.4702 -0.4618 -0.4655 -0.4515 -0.4487 -0.4702
-0.4926 -0.5318 -0.5682 -0.5580 -0.5346 -0.5234
-0.5178 -0.5234 -0.5514 -0.6158 -0.6326 -0.6121
-0.6336 -0.6457 -0.6700 -0.6653 -0.6261 -0.6382
-0.6494 -0.6747 -0.7129 -0.7101 -0.7204 -0.7437
-0.7400 -0.7381 -0.7596 -0.7727 -0.7829 -0.7951
-0.8081 -0.8502 -0.8707 -0.8996 -0.9538 -0.9398
-0.9482 -0.9435 -0.9146 -0.9538 -1.0060 -1.0630
-1.0611 -1.0910 -1.0994 -1.0490 -1.0285 -1.0135
-1.0863 -1.0733 -1.0453 -1.1162 -1.1199 -1.1134
-1.1619 -1.1843 -1.1442 -1.1479 -1.1619 -1.1601
-1.1825 -1.2040 -1.2180 -1.2385 -1.2460 -1.2310
-1.2646 -1.2964 -1.2805 -1.2609 -1.2254 -1.1732
-1.1489 -1.1498 -1.1386 -1.1507 -1.1769 -1.2002
-1.2152 -1.1610 -1.0779 -1.1433 -1.2198 -1.0807
-0.9986 -1.0397 -1.0835 -1.1470 -1.1274 -1.0434
-0.9995 -1.0369 -1.0807 -1.0453 -1.0061 -1.0117
-1.0397 -1.0742 -1.0779 -1.0667 -1.0695 -1.0723
-1.0425 -1.0117 -1.0509 -1.0574 -1.0518 -1.0565
-1.0303 -1.0331 -1.0770 -1.0835 -0.8987 -0.9118
-1.1694 -1.1153 -0.9473 -0.9603 -0.9725 -0.9790
-1.0070 -0.9370 -0.8371 -0.7951 -0.8100 -0.8119
-0.7391 -0.7055 -0.7269 -0.7064 -0.6849 -0.6747
-0.6756 -0.6999 -0.6793 -0.6560 -0.6327 -0.6140
-0.6131 -0.6065 -0.6093 -0.5823 -0.5645 -0.5701
-0.5776 -0.6345 -0.6299 -0.4805 -0.5160 -0.7036
-0.6775 -0.5748 -0.5729 -0.6345 -0.6728 -0.6616
-0.6336 -0.5608 -0.5701 -0.6457 -0.6103 -0.5739
-0.5823 -0.5981 -0.6112 -0.6019 -0.5916 -0.5720
-0.5748 -0.5729 -0.5599 -0.5505 -0.5487 -0.5365
-0.5356 -0.5375 -0.5038 -0.4721 -0.4833 -0.4852
-0.3685 -0.4674 -0.6765 -0.5832 -0.4861 -0.4824
-0.4600 -0.4814 -0.4833 -0.4189 -0.3722 -0.4105
-0.4824 -0.4758 -0.4105 -0.4096 -0.4469 -0.4376
-0.4544 -0.4562 -0.4170 -0.4338 -0.4413 -0.4152
-0.3993 -0.3629 -0.3349 -0.3620 -0.3797 -0.3414
-0.3134 -0.3321 -0.3125 -0.2639 -0.2098 -0.1370
-0.0987 -0.1071 -0.0866 -0.0268 -0.0231 -0.0156
0.0404 0.1197 0.1804 0.2075 0.2812 0.3400
0.3466 0.3102 0.2728 0.2943 0.3326 0.3690
0.4100 0.4801 0.5202 0.5183 0.5099 0.4913
0.5622 0.6303 0.6089 0.6313 0.7004 0.7694
0.8058 0.7722 0.7312 0.7396 0.8002 0.8507
0.8161 0.8012 0.8292 0.8544 0.8796 0.8479
0.8133 0.8310 0.8927 0.9468 0.9664 0.9804
0.9916 1.0000 0.9879 0.9664 0.9692 1.0345
1.0990 1.1326 1.1690 1.2334 1.2810 1.2642
1.2642 1.2838 1.3137 1.3183 1.3398 1.3762
1.3893 1.4051 1.3893 1.4107 1.4332 1.4481
1.4752 1.4929 1.5125 1.4845 1.4518 1.4864
1.5116 1.4985 1.4985 1.4920 1.4994 1.5125
1.5041 1.4817 1.4528 1.4649 1.4770 1.4752
1.4733 1.4406 1.4229 1.4079 1.4070 1.4089
1.3893 1.3902 1.3631 1.3426 1.3043 1.2866
1.3342 1.3202 1.3239 1.3725 1.4005 1.3687
1.2763 1.1979 1.1484 1.1914 1.2913 1.3025
1.2950 1.3314 1.2707 1.1848 1.1727 1.1083
1.0289 1.0224 1.1111 1.2586 1.3183 1.3267
1.2875 1.1680 1.0737 0.9935 0.9319 0.9253
0.9683 1.0121 1.0728 1.1410 1.1596 1.1083
1.0168 0.9365 0.8469 0.8292 0.8236 0.8282
0.8824 0.9141 0.9673 1.0215 1.0224 0.9515
0.8926 0.8366 0.7946 0.8208 0.8581 0.8898
0.8964 0.9001 0.8609 0.7965 0.7797 0.7694
0.7666 0.8301 0.9029 0.8730 0.7937 0.7582
0.7554 0.7162 0.6882 0.7078 0.7255 0.7461
0.7507 0.7386 0.6901 0.6555 0.6313 0.5827
0.5463 0.4912 0.4987 0.5034 0.4856 0.5192
0.5230 0.5220 0.5239 0.5062 0.4315 0.3456
0.2896 0.2653 0.2915 0.2681 0.2457 0.2747
0.2989 0.3279 0.3512 0.3381 0.2719 0.2186
0.1701 0.1132 0.0954 0.0805 0.0786 0.1122
0.1496 0.1533 0.1384 0.1328 0.1188 0.1085
0.0581 -0.0073 -0.0213 -0.0362 -0.0474 -0.0362
-0.0241 -0.0483 -0.0670 -0.0642 -0.0931 -0.1118
-0.1454 -0.1464 -0.1398 -0.1865 -0.2033 -0.1949
-0.1874 -0.1865 -0.1688 -0.1613 -0.1809 -0.2080
-0.2500 -0.2845 -0.3032 -0.3023 -0.2808 -0.2939
-0.3041 -0.2873 -0.2948 -0.2799 -0.2584 -0.2621
-0.2845 -0.3107 -0.3368 -0.3508 -0.3657 -0.3863
-0.3424 -0.3097 -0.3247 -0.3415 -0.3377 -0.3219
-0.3331 -0.3471 -0.3909 -0.4133 -0.3881 -0.3517
-0.3415 -0.3489 -0.3377 -0.3433 -0.3387 -0.3097
-0.2883 -0.2752 -0.3116 -0.3732 -0.3751 -0.3713
-0.3825 -0.3601 -0.3116 -0.2715 -0.2435 -0.2126
-0.2295 -0.2715 -0.2957 -0.2967 -0.2761 -0.2659
-0.2425 -0.2211 -0.2080 -0.2164 -0.2211 -0.2089
-0.2276 -0.2248 -0.2108 -0.2033 -0.1716 -0.1473
-0.1324 -0.1277 -0.1510 -0.1445 -0.1258 -0.1930
-0.2323 -0.2257 -0.2575 -0.2127 -0.1604 -0.1184
-0.0530 -0.0960 -0.1650 -0.1856 -0.1828 -0.1716
-0.1389 -0.0857 -0.0633 -0.0773 -0.1034 -0.1034
-0.0792 -0.0596 -0.0540 -0.0521 -0.0381 -0.0297
-0.0372 -0.0390 -0.0437 -0.0428 -0.0409 -0.0568
-0.0680 -0.0698 -0.0792 -0.0848 -0.0745 -0.0810
-0.0633 -0.0540 -0.0810 -0.0670 -0.0456 -0.0353
-0.0138 0.0188 0.0413 0.0403 0.0534 0.0525
0.0469 0.0618 0.0497 0.0431 0.0590 0.0777
0.0926 0.1038 0.1234 0.1103 0.1187 0.1393
0.1290 0.1439 0.1169 0.0991 0.1225 0.1523
0.2093 0.2214 0.2270 0.2354 0.2083 0.1561
0.1085 0.1001 0.0861 0.0898 0.1290 0.1542
0.1878 0.2121 0.2130 0.2214 0.1841 0.1309
0.1169 0.0954 0.0917 0.1355 0.1682 0.1850
0.2345 0.2233 0.1990 0.1934 0.1197 0.1113
0.1038 0.0889 0.1318 0.1635 0.2298 0.2466
0.2616 0.2457 0.1859 0.1850 0.1943 0.2438
0.2662 0.2896 0.2961 0.2756 0.2821 0.2317
0.2158 0.2700 0.3138 0.3502 0.4016 0.4296
0.4221 0.4090 0.3950 0.3708 0.3437 0.3549
0.4062 0.4753 0.5285 0.5911 0.6405 0.6181
0.5901 0.5416 0.5183 0.5621 0.5957 0.6461
0.6779 0.7059 0.7292 0.7124 0.7348 0.7283
0.7012 0.6826 0.6480 0.6686 0.6900 0.7012
0.7460 0.7796 0.7656 0.7703 0.8002 0.7750
0.7778 0.8048 0.8076 0.8123 0.8375 0.8861
0.8786 0.8777 0.8973 0.8767 0.8739 0.8889
0.8870 0.8833 0.8805 0.8562 0.8590 0.8795
0.9019 0.9542 0.9859 0.9747 0.9673 0.9719
0.9551 0.9533 0.9374 0.9038 0.8917 0.8590
0.8459 0.8711 0.8823 0.8907 0.9225 0.9374
0.9187 0.9029 0.8916 0.8720 0.8599 0.8758
0.8954 0.8916 0.9449 0.9729 0.9402 0.9598
0.9822 1.0018 1.0158 1.0055 0.9999 0.9915
0.9897 0.9822 0.9589 0.9663 0.9887 0.9495
0.8972 0.8786 0.8730 0.8748 0.8739 0.8767
0.8860 0.9028 0.9066 0.8832 0.8450 0.8151
0.8030 0.7796 0.7843 0.8039 0.8002 0.7899
0.7787 0.7656 0.7563 0.7563 0.7236 0.6965
0.6844 0.6629 0.6396 0.6228 0.6583 0.6788
0.6620 0.6573 0.6592 0.6387 0.5911 0.5518
0.5266 0.5257 0.5481 0.5612 0.5024 0.4734
0.4846 0.4408 0.3922 0.3250 0.2951 0.2886
0.2625 0.2261 0.1784 0.1663 0.1476 0.1243
0.1047 0.0907 0.0776 0.0776 0.0832 0.0562
0.0207 0.0020 -0.0036 -0.0391 -0.0521 -0.0568
-0.0587 -0.0372 -0.0615 -0.0941 -0.1053 -0.1212
-0.1800 -0.2304 -0.2463 -0.2482 -0.2248 -0.2220
-0.2146 -0.2118 -0.1950 -0.1875 -0.2659 -0.2920
-0.2799 -0.2874 -0.2883 -0.3070 -0.2939 -0.2734
-0.2640 -0.2435 -0.2640 -0.3163 -0.3051 -0.3061
-0.3779 -0.4022 -0.3975 -0.4181 -0.4358 -0.4218
-0.4255 -0.4377 -0.4265 -0.5124 -0.5730 -0.5357
-0.5786 -0.6290 -0.6384 -0.6655 -0.6748 -0.7047
-0.7560 -0.6972 -0.6748 -0.7756 -0.7840 -0.7625
-0.7849 -0.8064 -0.8400 -0.8606 -0.8596 -0.8568
-0.8792 -0.9044 -0.9119 -0.8886 -0.8802 -0.9548
-1.0155 -1.0155 -1.0090 -0.9997 -1.0025 -1.0314
-1.0389 -1.0305 -1.0790 -1.1182 -1.1453 -1.1920
-1.2116 -1.1948 -1.1817 -1.1836 -1.2060 -1.2256
-1.2041 -1.2946 -1.4057 -1.3777 -1.3310 -1.3544
-1.3927 -1.3992 -1.4216 -1.4113 -1.3973 -1.4272
-1.4841 -1.5327 -1.5168 -1.5271 -1.5579 -1.5728
-1.6186 -1.6232 -1.6232 -1.6662 -1.6503 -1.6559
-1.6886 -1.7362 -1.7913 -1.8361 -1.9033 -1.9350
-1.9808 -1.9976 -2.0041 -1.9630 -1.9910 -2.1759
-2.1516 -2.0909 -2.1731 -2.2366 -2.2683 -2.2776
-2.2562 -2.2179 -2.2225 -2.2683 -2.3280 -2.3383
-2.3784 -2.4503 -2.4746 -2.4933 -2.4559 -2.4158
-2.4149 -2.4111 -2.4251 -2.4718 -2.5157 -2.5371
-2.5483 -2.5241 -2.5287 -2.4979 -2.4251 -2.4559
-2.4989 -2.5792 -2.6342 -2.5605 -2.5157 -2.5054
-2.4867 -2.4727 -2.4765 -2.4699 -2.4895 -2.4951
-2.4597 -2.4606 -2.4065 -2.3626 -2.3626 -2.3654
-2.3813 -2.3887 -2.4391 -2.4625 -2.4606 -2.4363
-2.3831 -2.3252 -2.2991 -2.2646 -2.2730 -2.3607
-2.2571 -2.2524 -2.2795 -2.2412 -2.3308 -2.2086
-2.1329 -2.1693 -2.1469 -2.1750 -2.1871 -2.1143
-2.0713 -2.0956 -2.0629 -2.0611 -2.0387 -1.9761
-1.9714 -1.9892 -1.9836 -1.9827 -1.9640 -1.9108
-1.8660 -1.8100 -1.7679 -1.7773 -1.7754 -1.7810
-1.7754 -1.7315 -1.7493 -1.6261 -1.5364 -1.5644
-1.5560 -1.6214 -1.5346 -1.4422 -1.4422 -1.3759
-1.3339 -1.3255 -1.2359 -1.1864 -1.1957 -1.1481
-1.1658 -1.1248 -1.0221 -0.9941 -0.9577 -0.8849
-0.8765 -0.8877 -0.8354 -0.7980 -0.7868 -0.7616
-0.6991 -0.6702 -0.6309 -0.5824 -0.6039 -0.5544
-0.4695 -0.4386 -0.4723 -0.4751 -0.4032 -0.3453
-0.2996 -0.2585 -0.2230 -0.2146 -0.1978 -0.1782
-0.1717 -0.1754 -0.1950 -0.1763 -0.1409 -0.1194
-0.0774 -0.0288 -0.0372 -0.0438 0.0076 0.0542
0.0552 0.0440 0.0664 0.1140 0.1495 0.1812
0.2839 0.3474 0.2587 0.2363 0.3072 0.3558
0.3856 0.4052 0.4258 0.4276 0.4696 0.5387
0.5462 0.5555 0.5742 0.6078 0.6610 0.6498
0.6601 0.6778 0.6834 0.7236 0.7385 0.7656
0.7768 0.7618 0.7786 0.7646 0.7553 0.8066
0.7525 0.7656 0.9747 0.9541 0.8477 0.9019
0.9439 0.9747 0.9943 1.0316 1.0353 1.0456
1.1744 1.2239 1.1464 1.0876 1.0512 1.0689
1.1399 1.1707 1.1968 1.2332 1.2062 1.2220
1.2995 1.3005 1.2818 1.3005 1.3135 1.3341
1.3369 1.3350 1.3294 1.3359 1.3621 1.3807
1.5012 1.4657 1.4255 1.6001 1.5936 1.4853
1.4218 1.4666 1.5469 1.5637 1.6038 1.6216
1.6430 1.7028 1.7551 1.7635 1.7551 1.7336
1.7597 1.7971 1.8139 1.8652 1.9044 1.9128
1.9082 1.9427 1.9651 1.9427 1.9595 1.9716
1.9782 1.9847 1.9856 2.0304 2.0006 2.0416
2.1509 2.1023 2.0416 2.0482 2.0939 2.1023
2.0790 2.0827 2.0902 2.1219 2.1761 2.2181
2.2162 2.1947 2.2190 2.2199 2.2050 2.2489
2.2237 2.2050 2.2545 2.2937 2.3366 2.3525
2.3646 2.3693 2.3506 2.3282 2.2825 2.2956
2.3124 2.3357 2.4458 2.4823 2.4412 2.4020
2.4421 2.4963 2.4645 2.4365 2.4094 2.4057
2.4113 2.4225 2.4290 2.4010 2.4346 2.4673
2.4626 2.4598 2.4300 2.3964 2.3562 2.3460
2.3637 2.3385 2.3534 2.3898 2.3814 2.4001
2.4178 2.4188 2.4244 2.4057 2.3870 2.3544
2.2927 2.2591 2.2881 2.3217 2.2386 2.2386
2.3740 2.3413 2.2237 2.1425 2.0762 2.0874
2.1518 2.1901 2.1910 2.1807 2.1621 2.1070
2.0640 2.0472 2.0090 1.9996 2.0192 2.0202
1.9940 1.9324 1.8652 1.7943 1.7261 1.7289
1.7560 1.7662 1.7672 1.7429 1.7196 1.6524
1.5655 1.5245 1.4815 1.4405 1.4209 1.3844
1.3583 1.3910 1.4143 1.3658 1.2920 1.2584
1.2370 1.1828 1.1548 1.1305 1.0923 1.1072
1.1240 1.1025 1.0699 1.0241 0.9550 0.9065
0.9046 0.8832 0.8393 0.8001 0.7833 0.7711
0.7403 0.7487 0.7721 0.7814 0.7683 0.7385
0.7077 0.6628 0.6320 0.6302 0.6442 0.6516
0.6759 0.6927 0.6815 0.6414 0.5648 0.5237
0.4985 0.5172 0.5490 0.5714 0.5900 0.5574
0.5686 0.4649 0.3977 0.4808 0.4491 0.4313
0.4127 0.4257 0.4519 0.4211 0.4015 0.3501
0.3464 0.3333 0.3090 0.3240 0.3445 0.3725
0.3585 0.3286 0.3100 0.2932 0.2652 0.2390
0.2213 0.2222 0.2605 0.2726 0.2642 0.2325
0.2017 0.1951 0.1699 0.1569 0.1662 0.1895
0.1933 0.1858 0.1989 0.2110 0.1839 0.1279
0.1018 0.0775 0.0570 0.0486 0.0411 0.0495
0.0281 -0.0028 -0.0028 -0.0121 -0.0252 -0.0074
-0.0112 -0.0466 -0.0718 -0.1222 -0.1811 -0.2100
-0.2193 -0.2007 -0.2137 -0.2333 -0.2212 -0.2501
-0.2968 -0.3286 -0.3715 -0.4312 -0.4919 -0.4956
-0.4648 -0.4807 -0.4723 -0.4583 -0.5153 -0.5507
-0.5741 -0.6226 -0.6730 -0.6908 -0.6926 -0.7066
-0.6973 -0.7122 -0.7402 -0.7990 -0.8522 -0.8663
-0.9017 -0.9279 -0.9503 -0.9904 -1.0511 -1.0651
-1.0642 -1.0782 -1.1239 -1.1491 -1.1435 -1.2733
-1.3442 -1.3106 -1.3321 -1.3881 -1.4525 -1.4618
-1.4413 -1.4441 -1.4945 -1.5552 -1.6177 -1.6672
-1.6831 -1.7269 -1.7568 -1.7708 -1.7886 -1.8007
-1.8222 -1.8464 -1.8894 -1.9510 -2.0518 -2.1321
-2.1526 -2.1676 -2.1666 -2.1657 -2.1657 -2.1414
-2.1452 -2.2021 -2.2553 -2.2955 -2.3281 -2.3459
-2.2796 -2.2208 -2.2955 -2.3151 -2.2833 -2.2936
-2.3151 -2.3683 -2.3963 -2.3953 -2.3748 -2.3263
-2.3235 -2.3337 -2.3636 -2.4383 -2.4626 -2.4756
-2.4990 -2.4896 -2.4812 -2.4710 