Archivo de aceleración parte de la Red Nacional de Acelerógrafos (RENAC) Ecuador
          
Evento: 201604162358
Fecha del evento UTM (aammdd):                  2016    4   16
Hora del registro UTM (hhmmss): 23   59 40.00
Estación:                                      ACUE 
Componente:                                        E
Frecuencia de muestreo (Hz):            1.000000e+02
Unidades: cm/s^2
_____________________________________________
0.3741 0.2609 0.4311 0.8744 1.4598 1.8881
1.9910 1.6487 0.8660 -0.0702 -0.9904 -1.6740
-1.9564 -1.8966 -1.5468 -0.9857 -0.2871 0.4732
1.1147 1.4851 1.5300 1.2653 0.7771 0.1515
-0.4938 -0.9230 -0.9127 -0.5303 0.0234 0.5994
1.1222 1.5141 1.6188 1.3598 0.7930 0.1356
-0.4124 -0.7790 -0.9389 -0.9511 -0.8707 -0.7622
-0.7238 -0.8136 -0.9997 -1.0951 -0.9782 -0.6135
-0.1001 0.3264 0.5583 0.5424 0.3722 0.1543
-0.0814 -0.2562 -0.3984 -0.5134 -0.5302 -0.3498
0.0542 0.5611 1.0119 1.2354 1.1821 0.9464
0.6191 0.2703 0.0178 0.0206 0.3030 0.6659
0.8791 0.7958 0.4564 0.0496 -0.3488 -0.6621
-0.8828 -1.0811 -1.2569 -1.4336 -1.5337 -1.4916
-1.2774 -0.8837 -0.4498 0.0047 0.4405 0.7734
0.9670 0.8660 0.5237 0.1758 -0.0654 -0.1010
0.0103 0.0954 0.1001 -0.0084 -0.1936 -0.3301
-0.3591 -0.2085 0.1945 0.7687 1.4252 1.9377
2.0649 1.7825 1.1026 0.3133 -0.2272 -0.4461
-0.3909 -0.2010 -0.0206 0.1160 0.2179 0.2348
0.1338 0.1038 0.3404 0.7753 1.1877 1.2653
0.8744 0.1674 -0.6172 -1.3298 -1.9059 -2.2444
-2.2023 -1.7488 -1.0539 -0.2889 0.3788 0.9109
1.3205 1.4645 1.2915 0.8286 0.1730 -0.4068
-0.7313 -0.7790 -0.6135 -0.4348 -0.3338 -0.2506
-0.1618 0.0487 0.3891 0.6051 0.5668 0.3012
-0.0383 -0.2141 -0.1197 0.1412 0.3461 0.3423
0.0290 -0.5405 -1.1175 -1.4355 -1.3915 -1.0109
-0.3796 0.3217 0.8539 1.0942 1.1279 1.0923
1.1887 1.3841 1.4692 1.2429 0.6191 -0.1664
-0.8313 -1.2176 -1.3242 -1.2250 -0.9922 -0.7238
-0.4517 -0.0860 0.4602 1.2298 2.0303 2.4100
2.1687 1.4318 0.5462 -0.1225 -0.3506 -0.1178
0.3068 0.5649 0.3246 -0.4068 -1.3317 -2.0994
-2.3585 -2.0704 -1.4345 -0.6368 0.0693 0.4723
0.5780 0.4779 0.2993 0.0206 -0.4479 -0.9735
-1.4214 -1.6562 -1.5336 -1.0726 -0.3656 0.4228
1.0718 1.4140 1.3635 1.0559 0.7931 0.7669
0.9895 1.2476 1.3074 1.0933 0.6771 0.2600
-0.0879 -0.3394 -0.4731 -0.6031 -0.7864 -1.0081
-1.1586 -1.1418 -0.9669 -0.6751 -0.3572 -0.0411
0.2563 0.4976 0.6435 0.7248 0.9137 1.1952
1.4122 1.4767 1.3991 1.1672 0.6612 0.0440
-0.4283 -0.6751 -0.6331 -0.3170 0.2657 0.9296
1.3065 1.2242 0.5827 -0.4975 -1.5832 -2.3407
-2.4978 -1.9769 -1.0707 -0.0869 0.7239 1.1466
1.1335 0.7398 0.1899 -0.2721 -0.5900 -0.7219
-0.7219 -0.6536 -0.4713 -0.2272 0.0861 0.5154
0.9914 1.3879 1.5151 1.3280 0.8866 0.2984
-0.2440 -0.6237 -0.8519 -0.9071 -0.7153 -0.3600
0.0618 0.3704 0.4088 0.2657 0.0571 -0.0794
-0.0934 0.0609 0.4200 0.7950 1.0559 1.2336
1.3626 1.4262 1.3636 1.2093 1.0232 0.7800
0.4536 0.0702 -0.3590 -0.7780 -1.0436 -1.0735
-0.8659 -0.6209 -0.5386 -0.5629 -0.6499 -0.7116
-0.6022 -0.3310 -0.0158 0.1235 -0.0813 -0.5367
-0.9519 -1.0679 -0.8060 -0.3478 0.0786 0.4312
0.5986 0.4826 0.1357 -0.2964 -0.5760 -0.6227
-0.5068 -0.3104 -0.1037 0.0684 0.2217 0.3433
0.4228 0.5509 0.7436 1.0120 1.2140 1.1663
0.8128 0.2517 -0.3057 -0.6957 -0.7640 -0.6788
-0.6489 -0.6471 -0.6442 -0.6059 -0.5227 -0.3992
-0.1654 0.2320 0.6781 0.9727 0.9456 0.6650
0.3096 -0.0588 -0.3347 -0.4067 -0.1954 0.2404
0.6323 0.7426 0.5462 0.1142 -0.4058 -0.8154
-1.0408 -0.9949 -0.7359 -0.3618 0.0730 0.2853
0.0936 -0.3889 -0.8350 -0.8640 -0.3712 0.4200
1.2102 1.7040 1.6675 1.1448 0.3592 -0.3973
-0.8565 -0.9996 -0.9070 -0.5722 -0.2262 -0.0074
0.1544 0.2573 0.4041 0.5668 0.6342 0.5734
0.4209 0.2666 0.1965 0.1638 -0.0027 -0.2851
-0.6265 -0.8453 -0.6489 -0.0653 0.6950 1.2392
1.1784 0.5902 -0.2103 -0.8780 -1.1932 -1.1399
-0.8827 -0.7190 -0.7527 -0.9697 -1.3278 -1.6748
-1.8665 -1.7309 -1.1474 -0.2009 0.8539 1.6535
2.0023 1.8340 1.2140 0.4527 -0.2084 -0.5198
-0.3889 -0.0307 0.3564 0.7052 1.0026 1.2935
1.5366 1.5834 1.4534 1.1467 0.6940 0.2349
-0.1224 -0.2056 -0.0092 0.3910 0.9924 1.5666
1.8181 1.6994 1.3169 0.8923 0.5360 0.1385
-0.3197 -0.7826 -1.1801 -1.4251 -1.4990 -1.3484
-0.9893 -0.5787 -0.2243 -0.0532 -0.2140 -0.6713
-1.1941 -1.5373 -1.6523 -1.5560 -1.3269 -1.1548
-1.1773 -1.4485 -1.7786 -1.8450 -1.5448 -0.9145
-0.0775 0.7726 1.4010 1.6171 1.4609 1.1906
0.9980 0.9484 1.0840 1.2888 1.4693 1.5881
1.5600 1.2393 0.5136 -0.3365 -0.9566 -1.1529
-0.8537 -0.2813 0.2012 0.3022 -0.0943 -0.8602
-1.6766 -2.2593 -2.4267 -2.0647 -1.2287 -0.1916
0.6510 1.0896 1.1420 0.8418 0.2143 -0.6433
-1.5289 -2.2564 -2.5464 -2.2162 -1.4718 -0.5376
0.3667 1.0934 1.5731 1.6423 1.3646 0.9886
0.7558 0.7240 0.8390 1.0541 1.3786 1.8537
2.3306 2.5869 2.3793 1.7153 0.8428 0.0647
-0.3964 -0.6255 -0.7340 -0.7227 -0.6096 -0.4852
-0.3431 -0.1859 -0.0326 0.1124 0.1423 0.0217
-0.1729 -0.2570 -0.1626 0.0151 0.0993 0.0226
-0.0756 -0.1345 -0.0999 0.0245 0.1554 0.2545
0.1797 -0.1598 -0.7817 -1.5064 -1.9890 -2.0965
-1.8272 -1.2165 -0.3655 0.5575 1.3216 1.7546
1.9463 1.9949 1.9023 1.7518 1.6442 1.7583
2.0697 2.2998 2.2109 1.8013 1.2514 0.6978
0.2817 -0.0129 -0.2916 -0.5656 -0.8368 -1.0154
-1.0295 -0.8929 -0.5694 -0.1046 0.3078 0.5725
0.6174 0.3396 -0.2065 -0.9406 -1.6130 -1.8908
-1.6588 -0.8415 0.2386 1.1084 1.6068 1.6713
1.3721 0.8241 -0.0241 -1.1744 -2.3181 -3.2440
-3.8070 -3.8715 -3.5068 -2.7193 -1.6018 -0.4384
0.4640 0.8718 0.8016 0.4350 -0.0466 -0.4132
-0.5525 -0.5422 -0.5020 -0.3318 0.1236 0.7221
1.1729 1.2234 1.0467 0.8736 0.8493 1.0747
1.2851 1.4722 1.6358 1.4918 1.0841 0.5276
-0.0700 -0.5506 -0.9593 -1.1613 -1.0089 -0.6647
-0.3094 -0.0129 0.1423 0.0339 -0.2168 -0.3991
-0.3496 -0.0176 0.4257 0.8849 1.2861 1.4516
1.3656 1.2019 1.1841 1.4273 1.8724 2.3410
2.5084 2.2100 1.5694 0.8203 0.1461 -0.3393
-0.6825 -1.0005 -1.1650 -1.2576 -1.4419 -1.6635
-1.9730 -2.4575 -2.9830 -3.2701 -3.0560 -2.3742
-1.5354 -0.7760 -0.2158 0.2602 0.7091 0.9775
1.1748 1.5582 1.9501 1.9790 1.4890 0.5323
-0.4019 -0.8929 -0.8658 -0.3168 0.4949 1.2328
1.5825 1.4011 0.9036 0.2817 -0.3963 -0.9911
-1.3960 -1.5438 -1.1903 -0.2298 1.0532 2.2587
3.0854 3.4576 3.4267 2.9816 2.1633 1.2926
0.7914 0.8840 1.3618 1.6798 1.4778 0.6960
-0.3916 -1.3380 -1.9871 -2.4659 -2.8970 -3.2524
-3.3945 -3.2290 -2.8689 -2.3069 -1.5681 -0.9396
-0.4861 -0.1784 0.0311 0.2256 0.2854 0.0545
-0.3907 -0.8555 -1.0827 -0.8340 -0.1952 0.6446
1.5012 2.1343 2.4962 2.5355 2.1876 1.5956
0.9289 0.3593 0.0152 -0.0690 0.0657 0.1760
0.0199 -0.4851 -1.2941 -2.1273 -2.6641 -2.8025
-2.5818 -2.0525 -1.2408 -0.3205 0.4201 0.8550
1.0532 1.1907 1.3890 1.6097 1.7584 1.7771
1.6536 1.3843 1.0654 0.8802 0.8774 1.0560
1.3871 1.5442 1.2001 0.4613 -0.2813 -0.7208
-0.9050 -1.0519 -1.2819 -1.6223 -1.9075 -1.9665
-1.7682 -1.2090 -0.3495 0.4725 0.9326 0.9915
0.8859 0.8541 1.0186 1.3385 1.7303 1.9725
1.8313 1.2431 0.3369 -0.4898 -1.0013 -1.1697
-1.1229 -1.0659 -1.0883 -1.1575 -1.0303 -0.5328
0.2593 1.0074 1.3740 1.3376 1.0738 0.8485
0.8326 0.9831 1.2740 1.4872 1.2085 0.3070
-0.9564 -2.0450 -2.5107 -2.1871 -1.2202 0.0377
1.1197 1.5265 1.1543 0.2209 -0.7507 -1.0696
-0.6394 0.1798 0.8092 0.8073 0.2995 -0.5010
-1.2071 -1.5821 -1.7139 -1.6335 -1.4979 -1.3773
-1.1594 -0.7423 -0.1569 0.4641 0.9541 1.1543
0.9925 0.4557 -0.1933 -0.5693 -0.3757 0.4538
1.5134 2.2550 2.3588 1.7780 0.7194 -0.4599
-1.5129 -2.2339 -2.4406 -2.2105 -1.6765 -0.8985
0.0246 1.0701 2.0857 2.6122 2.3635 1.4545
0.3285 -0.5057 -0.8545 -0.7002 -0.0652 0.8475
1.7593 2.3738 2.3831 1.8201 0.9214 -0.0727
-0.8311 -1.2192 -1.3202 -1.3539 -1.4792 -1.7354
-2.0777 -2.5079 -3.0466 -3.4496 -3.6030 -3.4412
-2.9399 -2.1235 -0.8975 0.4735 1.6144 2.2550
2.3008 1.9716 1.4938 1.0720 0.9420 1.2403
1.8416 2.4233 2.6581 2.4607 2.0558 1.5499
0.9055 0.0919 -0.6674 -1.0593 -1.0284 -0.6113
-0.0474 0.3706 0.4473 0.2219 -0.1465 -0.6833
-1.2463 -1.6578 -1.7943 -1.5269 -0.9630 -0.1952
0.5922 1.1150 1.2600 0.8934 0.2500 -0.1335
0.0227 0.6727 1.4788 2.1026 2.2980 2.0371
1.4741 0.7961 0.2640 -0.0988 -0.2868 -0.2840
-0.2279 -0.1456 0.0489 0.5062 1.1169 1.5620
1.6041 1.1637 0.3659 -0.5674 -1.3520 -1.7691
-1.7420 -1.4221 -1.0630 -0.7497 -0.4449 -0.2232
-0.1400 -0.1709 -0.3420 -0.6656 -1.1855 -1.6438
-1.6587 -1.1519 -0.2709 0.5726 1.0542 1.1337
0.9186 0.5848 0.2182 -0.1073 -0.2952 -0.2251
0.0059 0.1331 -0.0128 -0.5113 -1.1266 -1.4558
-1.3576 -0.8891 -0.1643 0.5708 1.1113 1.3460
1.1973 0.7223 0.0162 -0.7086 -1.0920 -0.9779
-0.5402 0.0929 0.8915 1.8435 2.9527 3.9982
4.7744 5.1288 4.9568 4.3480 3.3352 2.0671
0.7120 -0.5505 -1.5110 -2.2273 -2.7585 -3.0895
-3.1662 -3.0082 -2.6958 -2.2385 -1.5306 -0.4963
0.5380 1.1590 1.2245 0.8457 0.1387 -0.8582
-1.8878 -2.4994 -2.3956 -1.6091 -0.4299 0.6662
1.3610 1.5817 1.4901 1.3750 1.3124 1.3320
1.4180 1.4124 1.2217 0.9551 0.7288 0.6334
0.6465 0.5343 0.1939 -0.4345 -1.1920 -1.8626
-2.4349 -2.7688 -2.9231 -3.0026 -2.9240 -2.6332
-2.0524 -1.3566 -0.8516 -0.5991 -0.4972 -0.4186
-0.4168 -0.5879 -0.8657 -1.1266 -1.3136 -1.3445
-0.9882 -0.1577 1.0038 2.2158 3.0443 3.2473
2.9480 2.2990 1.3816 0.3800 -0.3298 -0.3382
0.4866 1.6827 2.4673 2.3738 1.5518 0.5334
-0.2297 -0.4102 -0.0707 0.4707 1.0169 1.3030
1.2413 0.8485 0.2164 -0.3766 -0.7160 -0.7357
-0.5383 -0.1727 0.1649 0.2715 0.0602 -0.5468
-1.2416 -1.6493 -1.5465 -0.8460 0.1565 1.0019
1.4330 1.5368 1.4480 1.1805 0.7821 0.3361
-0.0156 -0.2971 -0.6786 -1.0396 -1.1640 -1.1359
-1.1471 -1.3547 -1.8177 -2.4115 -3.0671 -3.6469
-3.8143 -3.2831 -2.1048 -0.8133 0.0097 0.2641
0.3295 0.7242 1.6902 3.0341 4.2189 4.7614
4.4350 3.2772 1.7080 0.2388 -0.7487 -1.2219
-1.4305 -1.4492 -1.2855 -0.9713 -0.5458 -0.1296
0.1416 0.1434 -0.2007 -0.8133 -1.4230 -1.6718
-1.4277 -0.8348 -0.1605 0.3071 0.3875 0.1023
-0.1811 -0.0212 0.8401 2.0952 2.9873 3.0247
2.1831 0.9832 0.0639 -0.2652 -0.0838 0.2575
0.4324 0.1331 -0.7300 -1.8055 -2.5340 -2.4423
-1.4445 -0.0763 0.9365 1.3386 1.2629 1.0141
0.7111 0.1977 -0.4981 -1.1611 -1.4744 -1.2659
-0.7394 -0.3120 -0.2952 -0.5542 -0.7375 -0.6683
-0.4579 -0.3195 -0.2980 -0.4336 -0.7356 -1.1078
-1.3828 -1.3098 -0.9245 -0.3606 0.2482 0.6036
0.6709 0.6082 0.6728 0.9758 1.1965 1.0356
0.5166 -0.1137 -0.6309 -0.7562 -0.1754 1.1628
2.8573 4.1283 4.4191 3.6036 1.8614 -0.2166
-1.9345 -2.8978 -3.0287 -2.5162 -1.6558 -0.7852
-0.2203 -0.0632 -0.1614 -0.2400 -0.1521 0.0555
0.3221 0.7177 1.2891 1.8913 2.3383 2.3290
1.6622 0.5297 -0.8132 -1.9654 -2.6172 -2.7781
-2.4704 -1.9074 -1.3061 -0.8357 -0.7253 -1.0592
-1.7615 -2.5386 -3.0493 -2.9913 -2.2974 -1.2528
-0.2344 0.3847 0.5428 0.5802 0.7064 0.9571
1.3040 1.4911 1.3676 0.8954 0.0789 -0.8469
-1.6914 -2.1403 -1.9560 -1.2097 -0.0090 1.3452
2.5235 3.3605 3.7074 3.3736 2.4524 1.3732
0.4970 0.0406 0.0341 0.3361 0.6868 0.8664
1.0113 1.3096 1.8184 2.5899 3.3577 3.8655
4.0853 4.0394 3.7458 3.1529 2.3898 1.5453
0.7729 0.3062 0.2454 0.4614 0.4717 -0.0192
-0.9114 -1.8718 -2.5601 -2.9856 -3.1764 -2.9941
-2.3890 -1.4735 -0.6234 -0.2802 -0.5869 -1.3575
-2.1926 -2.8360 -3.4841 -4.2229 -4.6774 -4.4913
-3.5692 -2.2048 -0.9900 -0.2437 0.0200 -0.1595
-0.5616 -0.9582 -1.2499 -1.2181 -0.8085 -0.2119
0.2725 0.3661 0.2548 0.3165 0.8542 1.8595
2.8462 3.2240 2.8536 2.1756 1.5659 1.2489
1.1806 1.1095 0.8954 0.3071 -0.5065 -1.0161
-0.8899 -0.1249 0.9216 1.8792 2.6227 3.1146
3.2866 3.0809 2.5806 1.9493 1.3106 0.5456
-0.3924 -1.2873 -1.7334 -1.3939 -0.5046 0.4072
0.9421 0.9861 0.5316 -0.1941 -0.8291 -1.2247
-1.3341 -1.0928 -0.4017 0.5279 1.3873 1.7642
1.3499 0.4250 -0.6205 -1.4585 -1.8288 -1.6034
-0.8702 0.0780 1.0628 1.9877 2.7302 3.1632
3.1819 2.7826 1.9232 0.7009 -0.5766 -1.7297
-2.6125 -3.1315 -3.2652 -3.0436 -2.6387 -2.2234
-1.9354 -1.7222 -1.3977 -0.9086 -0.1202 1.0974
2.5563 3.6963 3.9965 3.4531 2.4721 1.4761
0.7065 0.3792 0.6120 1.1918 1.7735 2.1476
2.3244 2.3945 2.2748 1.7343 0.8140 -0.2147
-1.0825 -1.4220 -1.2209 -0.7337 -0.1604 0.3212
0.7617 1.1451 1.3705 1.4023 1.3031 1.1292
0.9029 0.5849 -0.0763 -1.0965 -2.2571 -3.1624
-3.3382 -2.8799 -2.1439 -1.3266 -0.6720 -0.3213
-0.3381 -0.6851 -1.0947 -1.3135 -1.1872 -0.8197
-0.3970 -0.0697 0.1286 0.1940 -0.0136 -0.4550
-1.1704 -2.0252 -2.8098 -3.4859 -3.7571 -3.5196
-2.9575 -2.3852 -2.0457 -1.7268 -1.0900 -0.1090
1.0254 1.9971 2.5049 2.5890 2.3552 1.8138
1.1685 0.6467 0.4325 0.6008 0.8384 0.8664
0.6719 0.3867 0.3708 0.7505 1.4088 2.2720
3.0127 3.2315 2.7293 1.4921 -0.0323 -1.2733
-2.0149 -2.2337 -1.9700 -1.2882 -0.3147 0.7121
1.4911 1.9765 2.2720 2.2842 1.9353 1.2237
0.2679 -0.7178 -1.6483 -2.4385 -2.8565 -2.7752
-2.1897 -1.3630 -0.7159 -0.3278 -0.0762 0.3194
1.0778 2.0410 2.9266 3.5055 3.6963 3.5906
3.2296 2.5825 1.7249 0.7860 0.0173 -0.4858
-0.8646 -1.2228 -1.6679 -2.0289 -2.0270 -1.5968
-0.8571 -0.0117 0.8515 1.5276 1.6950 1.2106
0.2829 -0.6860 -1.4631 -1.9082 -2.0018 -1.8895
-1.6436 -1.3340 -1.0067 -0.6214 -0.2726 -0.1398
-0.2689 -0.7187 -1.3864 -1.7006 -1.2115 0.1407
1.9457 3.3232 3.6645 2.8846 1.4042 -0.1454
-1.3481 -1.8914 -1.7876 -1.4593 -1.2620 -1.2443
-1.1264 -0.6467 0.1118 0.8206 1.1470 0.9646
0.3409 -0.3493 -0.7271 -0.8290 -0.8552 -0.9169
-0.8206 -0.2978 0.5803 1.5089 2.1851 2.4357
2.1514 1.2583 -0.0893 -1.5229 -2.6330 -3.2250
-3.3372 -2.9921 -2.3880 -1.8736 -1.6473 -1.4818
-0.9263 0.1258 1.2854 1.8821 1.5781 0.4821
-1.0320 -2.3337 -2.7845 -2.2243 -0.9983 0.4101
1.5650 2.3300 2.6199 2.3674 1.6960 0.7028
-0.4175 -1.4126 -2.1747 -2.5236 -2.2327 -1.2330
0.3147 1.9532 3.1829 3.8329 4.0096 3.8965
3.6935 3.5084 3.3587 3.1895 2.7770 2.0467
1.3313 1.0367 1.1713 1.3771 1.4444 1.3210
1.0292 0.6645 0.2680 -0.1033 -0.3633 -0.3932
-0.3278 -0.3549 -0.5064 -0.7084 -0.7869 -0.7261
-0.5419 -0.3062 -0.0519 0.3231 0.8319 1.2237
1.0273 0.0295 -1.5631 -3.1744 -4.1957 -4.4603
-4.1349 -3.5766 -3.1455 -2.8883 -2.6002 -2.0438
-1.2068 -0.3857 0.2334 0.5289 0.3886 -0.0472
-0.5354 -0.7888 -0.6466 -0.2146 0.2792 0.5364
0.1614 -0.8860 -2.0195 -2.6002 -2.3244 -1.3405
-0.0743 1.1498 2.2328 3.1998 3.8927 4.0779
3.8310 3.3372 2.7743 2.4067 2.1440 1.7783
1.3098 0.7187 0.0940 -0.4877 -0.9291 -1.1404
-1.0497 -0.7112 -0.3455 0.0847 0.5270 0.9058
1.1723 1.2312 1.1480 0.9058 0.6037 0.3147
0.1978 0.4008 0.7898 1.1611 1.1265 0.6701
0.0772 -0.3595 -0.4222 -0.1809 0.2699 0.7552
1.0086 0.6561 -0.3951 -1.7286 -3.0136 -4.0469
-4.7025 -4.9644 -4.8372 -4.4061 -3.6878 -2.7358
-1.6772 -0.5971 0.2960 0.8908 1.1779 1.1873
1.0881 0.9357 0.6767 0.2465 -0.2080 -0.3885
-0.1968 0.3624 0.9797 1.1929 0.8684 0.1118
-0.6747 -1.0665 -0.8785 -0.1650 0.8254 1.8054
2.3759 2.2646 1.4744 0.2278 -1.0777 -2.1326
-2.6601 -2.5273 -1.8979 -1.1310 -0.6092 -0.5073
-0.7831 -1.1030 -1.0974 -0.5896 0.4139 1.5735
2.4348 2.7247 2.5433 2.3030 2.3198 2.8014
3.7338 4.7681 5.4929 5.4807 4.6306 3.1474
1.4201 -0.0537 -1.1722 -1.9306 -2.3421 -2.6208
-2.8321 -2.8817 -2.6311 -1.9661 -0.9318 0.1100
0.5944 0.3222 -0.3997 -1.0057 -1.0880 -0.7607
-0.2099 0.3531 0.6645 0.5963 0.1399 -0.3950
-0.6775 -0.6475 -0.4530 -0.2940 -0.3015 -0.4848
-0.7569 -1.0497 -1.1965 -1.0861 -0.8233 -0.5549
-0.3847 -0.2548 -0.0135 0.3989 0.8806 1.1929
1.2350 1.0021 0.4167 -0.4446 -1.3078 -1.8511
-1.8389 -1.2778 -0.2950 0.8179 1.7325 2.3432
2.6069 2.5293 2.0748 1.3182 0.5149 -0.0069
-0.0219 0.2839 0.7459 1.2369 1.5445 1.5717
1.2724 0.8703 0.6056 0.4279 0.2821 0.1782
0.1689 0.1792 -0.0930 -0.7841 -1.6622 -2.4029
-2.7367 -2.5385 -2.0045 -1.3760 -0.7214 -0.0930
0.3615 0.5757 0.7010 0.9788 1.4922 2.1506
2.7743 3.0811 3.0558 2.8323 2.4928 2.2029
2.0327 1.8466 1.3061 0.2493 -1.0001 -1.9904
-2.4730 -2.4244 -1.9035 -1.0964 -0.3361 0.0932
0.0193 -0.3520 -0.7055 -0.9786 -1.1619 -1.2881
-1.2731 -1.0104 -0.5381 0.0763 0.6505 1.0629
1.2341 1.0527 0.5505 -0.0032 -0.2145 0.0389
0.5505 0.9750 1.1144 0.4243 0.4243 0.5290
0.5973 0.6562 0.7207 0.7581 0.8067 0.8498
0.9321 1.0836 1.1621 1.1125 0.9330 0.6805
0.4046 0.1428 -0.0490 -0.1649 -0.2285 -0.2930
-0.3145 -0.2697 -0.1574 0.0072 0.1400 0.1802
0.1016 -0.0826 -0.3145 -0.4913 -0.6606 -0.8186
-0.9318 -1.0618 -1.1300 -1.1899 -1.2825 -1.3563
-1.4386 -1.4835 -1.5303 -1.6304 -1.7314 -1.8613
-1.9895 -2.0549 -2.0718 -1.9876 -1.8342 -1.6472
-1.3966 -1.1375 -0.8607 -0.5614 -0.3005 -0.1004
-0.0087 0.0118 0.0642 0.2091 0.4616 0.7815
1.1022 1.3856 1.5867 1.6793 1.6699 1.5137
1.2350 0.8741 0.5187 0.2868 0.2054 0.2578
0.3447 0.4083 0.4663 0.5692 0.7815 1.0892
1.3819 1.5923 1.6549 1.4585 1.0789 0.6029
0.0735 -0.4118 -0.8383 -1.1067 -1.1712 -1.0524
-0.6849 -0.1500 0.4607 1.1247 1.7110 2.1431
2.3816 2.3956 2.2852 2.1740 2.1216 2.0991
2.0627 1.9635 1.7952 1.5680 1.2781 0.9414
0.5355 0.0689 -0.3791 -0.7981 -1.1787 -1.5247
-1.8595 -2.1391 -2.3635 -2.5141 -2.5777 -2.5057
-2.3065 -2.0521 -1.7585 -1.4742 -1.1572 -0.8177
-0.4651 -0.1275 0.1446 0.3859 0.6141 0.8778
1.1518 1.3641 1.5034 1.5427 1.5081 1.4193
1.2715 1.1041 0.9517 0.9012 0.9732 1.1378
1.3819 1.6465 1.9402 2.2029 2.3759 2.4423
2.3385 2.0552 1.6437 1.1770 0.6954 0.2213
-0.2323 -0.6438 -0.9926 -1.2376 -1.3255 -1.3339
-1.3517 -1.3975 -1.5210 -1.6762 -1.7491 -1.7108
-1.5602 -1.3732 -1.2180 -1.0637 -0.9570 -0.8532
-0.6802 -0.4960 -0.2304 0.0857 0.4289 0.7758
1.0957 1.4894 1.8120 2.0168 2.1580 2.2600
2.3395 2.3086 2.1571 1.8186 1.3603 0.8937
0.4420 0.0305 -0.3922 -0.7794 -1.0450 -1.1693
-1.1207 -0.9496 -0.8308 -0.7588 -0.7074 -0.7466
-0.8729 -1.0319 -1.2114 -1.4527 -1.6706 -1.8773
-2.0783 -2.2560 -2.4552 -2.6451 -2.8611 -3.1192
-3.4054 -3.6597 -3.7916 -3.7570 -3.5288 -3.1912
-2.7657 -2.1971 -1.5490 -0.8392 -0.1304 0.4560
0.8937 1.1312 1.1985 1.1705 1.0545 0.8899
0.6870 0.5140 0.3999 0.3541 0.4251 0.5701
0.7534 0.9273 1.0695 1.1434 1.1415 1.1536
1.1733 1.1985 1.2462 1.2612 1.2509 1.2574
1.3444 1.5371 1.7858 2.0673 2.3086 2.4208
2.3890 2.2366 2.0000 1.7260 1.4464 1.2275
1.0751 0.9498 0.8011 0.5607 0.2446 -0.1453
-0.5222 -0.8757 -1.2301 -1.5743 -1.8951 -2.0578
-2.0840 -1.9446 -1.6996 -1.4247 -1.1226 -0.9337
-0.8495 -0.9047 -1.0599 -1.2647 -1.5163 -1.7277
-1.8539 -1.8408 -1.6856 -1.4153 -1.0889 -0.7046
-0.3090 0.0959 0.5532 0.9900 1.3248 1.5034
1.5483 1.4735 1.3566 1.1798 0.9357 0.6954
0.4887 0.3858 0.3166 0.2596 0.2119 0.1754
0.2147 0.3120 0.4522 0.5757 0.7094 0.8525
1.0171 1.2369 1.4080 1.5389 1.6081 1.5847
1.4819 1.2827 1.0414 0.7842 0.5299 0.3690
0.2961 0.2615 0.2699 0.2437 0.1717 0.1193
0.1193 0.1707 0.2100 0.1773 0.0539 -0.1781
-0.5250 -0.8926 -1.1881 -1.3901 -1.5079 -1.5808
-1.6164 -1.6164 -1.5593 -1.4424 -1.2881 -1.1394
-1.0600 -1.0478 -1.1030 -1.1338 -1.0600 -0.8944
-0.6027 -0.2426 0.0791 0.2661 0.2409 0.0585
-0.1921 -0.4783 -0.6934 -0.8121 -0.9159 -0.9964
-1.0955 -1.1871 -1.2554 -1.3284 -1.3471 -1.3256
-1.2938 -1.2526 -1.1928 -1.1142 -1.0310 -0.9496
-0.8449 -0.7196 -0.5849 -0.4512 -0.3118 -0.1566
0.0192 0.2334 0.4541 0.6963 0.9610 1.2079
1.4099 1.5642 1.6221 1.5548 1.4117 1.1901
0.9619 0.7636 0.5766 0.3727 0.1689 -0.0154
-0.2183 -0.3801 -0.4811 -0.5119 -0.4895 -0.4343
-0.3417 -0.2118 0.0192 0.3512 0.7487 1.1826
1.5744 1.9317 2.2515 2.5012 2.7023 2.7733
2.6714 2.4236 2.0374 1.5875 1.1443 0.7552
0.4747 0.2493 0.0454 -0.1360 -0.3324 -0.4923
-0.5905 -0.6055 -0.4315 -0.0799 0.3372 0.7711
1.1433 1.3865 1.4547 1.3612 1.1882 1.0171
0.8899 0.8048 0.7627 0.7870 0.9020 1.0928
1.3631 1.6848 1.9681 2.0953 2.0757 1.9298
1.6689 1.3678 1.0077 0.6701 0.4120 0.2352
0.1286 0.0220 -0.0547 -0.1585 -0.2754 -0.3324
-0.3605 -0.3773 -0.4998 -0.7832 -1.1806 -1.6117
-1.9578 -2.1700 -2.1962 -2.0775 -1.9250 -1.7286
-1.5453 -1.4359 -1.3966 -1.4528 -1.5781 -1.7988
-2.0775 -2.3739 -2.6320 -2.8499 -3.0641 -3.2249
-3.3839 -3.4213 -3.2941 -3.1043 -2.8733 -2.7050
-2.5610 -2.4225 -2.2439 -1.9465 -1.6286 -1.3349
-1.1301 -1.0553 -1.0796 -1.1601 -1.2106 -1.2358
-1.2049 -1.1283 -1.1011 -1.0852 -1.0600 -1.0123
-0.9225 -0.8178 -0.6438 -0.3923 -0.1173 0.1427
0.3129 0.4298 0.5167 0.6000 0.7374 0.9058
1.0432 1.1143 1.2031 1.3247 1.4800 1.6427
1.7886 1.9775 2.1795 2.3918 2.5779 2.6966
2.7219 2.6115 2.3908 2.1084 1.7942 1.5202
1.3584 1.2406 1.1433 1.0993 1.0862 1.0984
1.1386 1.1442 1.0947 1.0152 0.8908 0.7795
0.7290 0.7748 0.9703 1.2396 1.5043 1.7671
1.9167 1.8624 1.6651 1.3920 1.0900 0.8300
0.6187 0.4541 0.3521 0.2680 0.1763 0.0557
-0.0472 -0.1426 -0.2324 -0.3100 -0.4475 -0.6121
-0.7710 -0.8655 -0.8982 -0.8954 -0.8814 -0.9076
-0.9665 -1.0778 -1.2386 -1.4715 -1.7577 -2.0616
-2.3824 -2.6573 -2.8509 -2.9575 -2.9425 -2.7620
-2.4263 -1.9737 -1.4518 -0.9151 -0.3465 0.2474
0.8309 1.3528 1.7306 1.9429 1.9821 1.8774
1.6361 1.2770 0.8281 0.3437 -0.1183 -0.5288
-0.8113 -0.9899 -1.0731 -1.0647 -0.9787 -0.7598
-0.3960 0.0940 0.6729 1.2751 1.8428 2.3497
2.7209 2.9211 3.0043 2.9828 2.8444 2.6583
2.4338 2.2084 2.0476 1.9092 1.8362 1.7670
1.6595 1.5548 1.3920 1.1461 0.7823 0.3194
-0.1781 -0.7000 -1.2012 -1.6267 -1.9419 -2.1205
-2.1467 -1.9690 -1.6529 -1.2732 -0.8758 -0.5513
-0.2801 -0.1660 -0.1566 -0.1538 -0.2202 -0.2913
-0.3764 -0.4391 -0.4550 -0.4849 -0.5513 -0.6691
-0.8066 -0.9861 -1.1657 -1.3078 -1.4304 -1.5164
-1.6052 -1.6978 -1.8325 -1.9924 -2.0915 -2.1280
-2.0943 -2.0270 -1.9877 -1.9625 -1.8951 -1.8334
-1.7923 -1.7427 -1.7324 -1.7811 -1.8259 -1.8540
-1.8933 -1.8615 -1.8222 -1.7633 -1.6426 -1.5435
-1.3593 -1.0722 -0.7449 -0.4241 -0.1884 -0.0173
0.0902 0.1061 0.0061 -0.2436 -0.6065 -1.0460
-1.4818 -1.8325 -2.0420 -2.0326 -1.8100 -1.4107
-0.9067 -0.3605 0.1492 0.5737 0.9216 1.1564
1.2714 1.2957 1.2573 1.1657 1.0432 0.9179
0.7879 0.6710 0.6616 0.7458 0.9328 1.1928
1.4369 1.6922 1.9316 2.1607 2.3281 2.4160
2.4029 2.2589 2.0803 1.8942 1.7857 1.8054
1.9382 2.1663 2.4750 2.8238 3.1230 3.3755
3.5233 3.5252 3.3942 3.1286 2.7733 2.3431
1.9073 1.5351 1.2424 1.0086 0.7944 0.5560
0.2707 -0.0594 -0.3933 -0.6888 -0.9712 -1.1994
-1.4248 -1.6876 -1.9204 -2.1215 -2.2468 -2.2870
-2.1963 -1.9185 -1.4977 -0.9478 -0.3456 0.2099
0.7327 1.2003 1.5547 1.7941 1.9325 1.9569
1.8998 1.8138 1.6875 1.6193 1.5650 1.4603
1.3303 1.1180 0.8861 0.6635 0.4400 0.1978
-0.0594 -0.3035 -0.5457 -0.7346 -0.9020 -1.0685
-1.1704 -1.2499 -1.3668 -1.5015 -1.6399 -1.7530
-1.8278 -1.8531 -1.8419 -1.8484 -1.8952 -1.9840
-2.0738 -2.1645 -2.2505 -2.3038 -2.3207 -2.2459
-2.0766 -1.8718 -1.6333 -1.2910 -0.8824 -0.5130
-0.1988 0.0481 0.2109 0.3296 0.4166 0.5082
0.6607 0.8945 1.1928 1.5126 1.7605 1.8353
1.7633 1.5856 1.3097 0.9300 0.4708 -0.0014
-0.4606 -0.9226 -1.3444 -1.6380 -1.7334 -1.6090
-1.3509 -1.0414 -0.6635 -0.2399 0.1538 0.5868
1.0488 1.4462 1.8708 2.3150 2.6938 2.9762
3.1885 3.3690 3.5261 3.6785 3.7870 3.7786
3.5682 3.1511 2.5871 1.9447 1.2854 0.6551
0.0341 -0.5897 -1.1283 -1.6249 -2.0214 -2.2702
-2.4039 -2.3927 -2.2936 -2.0981 -1.8447 -1.6296
-1.4622 -1.3219 -1.1975 -1.0610 -0.8693 -0.6561
-0.4541 -0.2165 0.0163 0.2501 0.4446 0.5176
0.5241 0.4764 0.4521 0.4213 0.3203 0.1669
-0.0248 -0.2250 -0.4260 -0.5747 -0.7496 -0.9394
-1.0451 -1.0601 -0.9563 -0.8057 -0.6645 -0.5719
-0.5382 -0.5616 -0.6439 -0.7477 -0.9151 -1.1527
-1.4295 -1.6670 -1.7923 -1.8064 -1.7082 -1.4987
-1.2462 -0.9909 -0.6841 -0.3643 -0.0781 0.1547
0.3025 0.3567 0.3044 0.1444 -0.0772 -0.3091
-0.5401 -0.7589 -0.9273 -1.0517 -1.1414 -1.2256
-1.3266 -1.3883 -1.4089 -1.3247 -1.1471 -0.9610
-0.7318 -0.4971 -0.2222 0.1145 0.4661 0.8720
1.2882 1.7230 2.1130 2.3720 2.4983 2.4581
2.3253 2.1139 1.8221 1.4845 1.0544 0.5148
-0.0473 -0.5813 -1.1171 -1.6324 -2.0486 -2.3067
-2.4853 -2.5723 -2.5863 -2.5975 -2.5339 -2.4236
-2.2824 -2.0907 -1.8887 -1.7175 -1.5352 -1.2696
-0.9553 -0.6103 -0.2399 0.1575 0.5288 0.8084
1.0310 1.1656 1.2049 1.2414 1.2414 1.1918
1.1535 1.0684 0.9926 0.9767 0.9721 0.9842
0.9664 0.8944 0.8065 0.7411 0.6756 0.6298
0.5989 0.5269 0.4643 0.4175 0.3941 0.4558
0.5905 0.7757 1.0085 1.2302 1.3732 1.4050
1.2638 0.9449 0.4951 -0.0389 -0.5794 -1.0723
-1.4510 -1.6371 -1.6380 -1.5015 -1.2153 -0.8628
-0.5298 -0.2474 -0.0005 0.2464 0.4081 0.5484
0.6560 0.6719 0.6681 0.5980 0.5026 0.4362
0.3689 0.3221 0.2950 0.2445 0.1500 0.0509
-0.0510 -0.1193 -0.1137 -0.0782 0.0574 0.2679
0.4558 0.6429 0.8103 1.0254 1.3115 1.5967
1.8623 2.0812 2.2336 2.3159 2.3561 2.3402
2.2719 2.1214 1.8979 1.6220 1.1984 0.6681
0.1566 -0.2942 -0.6206 -0.7524 -0.7356 -0.5878
-0.3213 0.0041 0.3782 0.7626 1.1179 1.3817
1.5173 1.5154 1.3835 1.1609 0.9281 0.6962
0.4193 0.1425 -0.1549 -0.4681 -0.7160 -0.9498
-1.1808 -1.3640 -1.5483 -1.7138 -1.8270 -1.9429
-2.0280 -2.0757 -2.0944 -2.0720 -2.0168 -1.9317
-1.8485 -1.7447 -1.6736 -1.6895 -1.7942 -1.9242
-2.0159 -2.0720 -2.0290 -1.9420 -1.8569 -1.7484
-1.5941 -1.3687 -1.1031 -0.8544 -0.6879 -0.6253
-0.6655 -0.7599 -0.8665 -0.9544 -1.0283 -1.1087
-1.1677 -1.2154 -1.2425 -1.2790 -1.3136 -1.3276
-1.3659 -1.3734 -1.3659 -1.3182 -1.2051 -1.1022
-0.9797 -0.8665 -0.7768 -0.6711 -0.5495 -0.4167
-0.3522 -0.3905 -0.5533 -0.7768 -0.9928 -1.2359
-1.4613 -1.6652 -1.8139 -1.8719 -1.8045 -1.5838
-1.2790 -0.8759 -0.3896 0.1219 0.6110 1.0235
1.3676 1.6248 1.8015 1.9325 1.9923 1.9773
1.8885 1.7594 1.6472 1.6136 1.6594 1.7819
1.9437 2.0914 2.2719 2.4403 2.5983 2.7077
2.7152 2.6806 2.5815 2.4655 2.3439 2.2439
2.2242 2.2345 2.3187 2.4393 2.5590 2.7274
2.8489 2.9424 3.0603 3.1070 3.1005 3.0874
3.1089 3.1669 3.2473 3.3642 3.4643 3.5241
3.5802 3.6410 3.6382 3.5625 3.3997 3.1108
2.7274 2.2654 1.7342 1.1506 0.5587 0.0153
-0.5149 -1.0657 -1.6437 -2.2123 -2.7425 -3.2644
-3.7170 -4.0462 -4.2173 -4.2341 -4.1154 -3.8713
-3.5636 -3.1886 -2.7640 -2.3217 -1.8915 -1.5333
-1.2780 -1.1069 -0.9984 -0.9704 -0.9928 -1.0227
-1.0751 -1.1462 -1.2247 -1.2743 -1.2678 -1.1780
-0.9545 -0.6524 -0.3363 -0.0268 0.2388 0.3819
0.3417 0.1350 -0.2288 -0.6795 -1.1518 -1.6418
-2.1384 -2.5808 -2.9361 -3.2185 -3.3635 -3.3869
-3.3102 -3.1437 -2.9043 -2.5564 -2.1253 -1.6250
-1.0723 -0.5626 -0.1530 0.1547 0.3782 0.5474
0.6802 0.8214 0.9748 1.1525 1.3395 1.5163
1.6809 1.7482 1.7014 1.5322 1.2628 0.9393
0.5848 0.2753 0.0060 -0.2129 -0.3419 -0.3906
-0.3045 -0.0979 0.1715 0.4614 0.6840 0.8009
0.7878 0.6213 0.3725 0.0733 -0.2363 -0.4719
-0.6169 -0.6328 -0.4972 -0.2783 0.0088 0.3604
0.6690 0.8906 1.0505 1.0992 1.0524 1.0010
0.9683 1.0066 1.1235 1.2834 1.4957 1.7220
1.9371 2.1372 2.2934 2.3963 2.4402 2.4047
2.2812 2.0577 1.7538 1.3938 0.9879 0.5848
0.1677 -0.2475 -0.5860 -0.8180 -0.9517 -0.9741
-0.9143 -0.8582 -0.8217 -0.7787 -0.7067 -0.6319
-0.5206 -0.3476 -0.1643 0.0349 0.1939 0.2706
0.2828 0.2304 0.1126 -0.0399 -0.1858 -0.3204
-0.3924 -0.3625 -0.2035 0.0901 0.4530 0.8111
1.1450 1.3694 1.4751 1.5368 1.5462 1.5406
1.5209 1.4358 1.2572 0.9851 0.6624 0.3791
0.1733 -0.0427 -0.3298 -0.6796 -1.1004 -1.5231
-1.8934 -2.1749 -2.3227 -2.3975 -2.3704 -2.2927
-2.2385 -2.1450 -2.0655 -2.0197 -1.9477 -1.8504
-1.6989 -1.4324 -1.0723 -0.6945 -0.2952 0.0807
0.3875 0.6419 0.8504 0.9916 1.0178 0.9804
0.8897 0.7391 0.5764 0.4006 0.2276 0.0592
-0.0474 -0.1091 -0.1502 -0.1269 -0.1054 -0.0867
-0.0754 -0.0708 -0.0156 0.0630 0.1658 0.2771
0.3894 0.4904 0.5502 0.5726 0.5427 0.4763
0.3865 0.3042 0.1827 -0.0221 -0.2662 -0.5374
-0.8077 -1.0490 -1.2622 -1.4558 -1.6363 -1.7578
-1.8270 -1.9206 -2.0066 -2.0393 -1.9926 -1.8560
-1.6372 -1.3613 -1.1210 -0.8937 -0.6899 -0.5402
-0.3943 -0.3392 -0.3943 -0.5197 -0.7441 -0.9526
-1.0976 -1.1902 -1.1846 -1.0901 -0.8853 -0.5973
-0.2354 0.1724 0.5390 0.8654 1.1740 1.4349
1.6490 1.8445 1.9483 1.9857 2.0409 2.1297
2.2934 2.5113 2.7376 2.9386 3.0873 3.1453
3.1341 3.0546 2.8694 2.6188 2.2756 1.8435
1.3423 0.7475 0.1733 -0.3738 -0.9405 -1.4548
-1.8869 -2.1899 -2.2993 -2.1824 -1.9065 -1.4838
-0.9078 -0.2410 0.4511 1.0355 1.4938 1.7715
1.8828 1.8987 1.8239 1.7416 1.6369 1.5499
1.4975 1.4489 1.4414 1.4648 1.4826 1.4685
1.4021 1.2665 1.1169 0.9635 0.7728 0.5792
0.3809 0.1836 0.0658 0.0078 0.0199 0.0929
0.1331 0.1752 0.1621 0.0788 -0.0988 -0.4374
-0.8582 -1.3062 -1.7148 -2.1057 -2.4864 -2.7725
-2.9278 -2.8960 -2.7089 -2.4022 -1.9589 -1.4081
-0.7563 -0.0044 0.7784 1.5396 2.2185 2.7516
3.1116 3.2659 3.2173 2.9686 2.6160 2.2457
1.8987 1.6425 1.4190 1.1608 0.8850 0.5866
0.2360 -0.1297 -0.4636 -0.7553 -1.0078 -1.2491
-1.5278 -1.8710 -2.2675 -2.6987 -3.1344 -3.5375
-3.9153 -4.2361 -4.4736 -4.6074 -4.5513 -4.3203
-3.8704 -3.1887 -2.3657 -1.4670 -0.6366 0.0601
0.5913 0.9158 1.0673 1.1001 1.0496 0.9299
0.7101 0.3921 0.0021 -0.4757 -0.9761 -1.4221
-1.8187 -2.1254 -2.3302 -2.4742 -2.5210 -2.4808
-2.3573 -2.1665 -1.9440 -1.6784 -1.3997 -1.1238
-0.8666 -0.6861 -0.5590 -0.4645 -0.4047 -0.3457
-0.3644 -0.4299 -0.4683 -0.5066 -0.5131 -0.4926
-0.4851 -0.4804 -0.4907 -0.5375 -0.5646 -0.5636
-0.5262 -0.4645 -0.4196 -0.3673 -0.3794 -0.4757
-0.6216 -0.9115 -1.3052 -1.7719 -2.2404 -2.6089
-2.8464 -2.8782 -2.8502 -2.7155 -2.4031 -2.0758
-1.6999 -1.2501 -0.7797 -0.3373 0.0667 0.3987
0.6259 0.7942 0.8765 0.8719 0.8195 0.7147
0.5286 0.2294 -0.0858 -0.3878 -0.6394 -0.7909
-0.8526 -0.8283 -0.7862 -0.6684 -0.4973 -0.2504
0.1144 0.4922 0.8513 1.1262 1.2646 1.2422
1.0954 0.8167 0.4491 0.1125 -0.1915 -0.4617
-0.6806 -0.7993 -0.8405 -0.8208 -0.7488 -0.6693
-0.5665 -0.4178 -0.2279 0.0143 0.3257 0.7222
1.1777 1.6499 2.1746 2.7104 3.1948 3.6129
3.9056 4.0533 4.0879 4.0459 3.9402 3.8018
3.6896 3.6147 3.5212 3.4043 3.2528 3.0153
2.7216 2.4065 2.0661 1.7098 1.3179 0.7933
0.1443 -0.5721 -1.2557 -1.7785 -2.1030 -2.2694
-2.3265 -2.3237 -2.3125 -2.2171 -2.0141 -1.6681
-1.1856 -0.6750 -0.1728 0.2574 0.5857 0.7839
0.8531 0.7933 0.6062 0.3893 0.1733 -0.0203
-0.1316 -0.2120 -0.2261 -0.1185 0.0470 0.2677
0.4856 0.7250 0.9298 1.0037 1.0635 1.0710
1.0916 1.1926 1.3151 1.4488 1.4423 1.2646
0.9476 0.4660 -0.1157 -0.7638 -1.5148 -2.3321
-3.1148 -3.7760 -4.2904 -4.6504 -4.8253 -4.9469
-5.0236 -4.9871 -4.8842 -4.6916 -4.4204 -4.1492
-3.9247 -3.7620 -3.6180 -3.4347 -3.2140 -2.9409
-2.6557 -2.3555 -2.0703 -1.8337 -1.6036 -1.4839
-1.4661 -1.5176 -1.5877 -1.6691 -1.7420 -1.7645
-1.8337 -1.8411 -1.8580 -1.9188 -1.9356 -2.0357
-2.1685 -2.3527 -2.5678 -2.7324 -2.8624 -2.8287
-2.6295 -2.3153 -1.8916 -1.4671 -1.1145 -0.8480
-0.6263 -0.4309 -0.3009 -0.2336 -0.2326 -0.2635
-0.2523 -0.1653 0.0320 0.3257 0.7091 1.1730
1.7453 2.4139 3.0863 3.7634 4.3722 4.8622
5.2475 5.5412 5.7750 5.9181 5.9826 5.9751
5.8704 5.6843 5.4477 5.1905 4.9614 4.7135
4.3909 4.0243 3.6652 3.3547 3.0658 2.8301
2.6393 2.4672 2.3307 2.2054 2.1231 2.1100
2.1352 2.1708 2.2073 2.1418 2.0221 1.9482
1.8678 1.8622 1.9099 1.9894 2.1745 2.3840
2.6178 2.8666 3.0573 3.2070 3.2584 3.1836
2.9704 2.6028 2.1203 1.5685 1.0560 0.5885
0.2312 0.0030 -0.1279 -0.1129 -0.0512 0.0816
0.3247 0.6324 0.9953 1.3151 1.4872 1.4937
1.3338 1.0168 0.5997 0.0965 -0.4982 -1.1155
-1.7102 -2.2985 -2.8540 -3.3262 -3.6704 -3.8995
-4.0379 -4.0398 -3.9154 -3.6629 -3.2393 -2.7202
-2.1872 -1.7009 -1.3203 -1.0313 -0.8199 -0.6862
-0.6769 -0.7881 -1.0435 -1.4231 -1.8758 -2.3920
-2.8689 -3.3318 -3.7302 -3.9762 -4.1333 -4.1688
-4.1473 -4.0519 -3.7761 -3.3337 -2.6510 -1.7355
-0.6497 0.5323 1.7125 2.8693 3.9485 4.9183
5.7104 6.2977 6.6335 6.6232 6.3005 5.6796
4.8426 3.9055 2.8862 1.8659 0.8568 -0.1186
-0.9789 -1.6943 -2.1863 -2.4640 -2.5416 -2.4023
-2.1114 -1.7308 -1.3062 -0.9116 -0.5890 -0.3711
-0.3467 -0.5675 -1.0032 -1.6457 -2.4257 -3.2019
-3.9229 -4.5738 -5.1564 -5.6418 -5.9887 -6.1561
-6.1337 -5.9550 -5.6259 -5.1564 -4.5569 -3.8499
-2.9830 -1.9506 -0.8705 0.1779 1.1159 1.9183
2.5981 3.1443 3.5314 3.7727 3.8709 3.8634
3.8625 3.8934 3.9289 3.9448 3.8887 3.7531
3.5763 3.3640 3.0985 2.7571 2.3709 1.9631
1.5479 1.1505 0.8194 0.5800 0.3958 0.2574
0.0900 -0.1317 -0.3898 -0.6750 -0.9350 -1.1791
-1.3558 -1.4400 -1.4858 -1.4260 -1.2174 -0.9313
-0.5488 -0.0690 0.4192 0.9363 1.4535 1.8818
2.2100 2.4251 2.4438 2.2474 1.8696 1.3609
0.8503 0.3976 0.0292 -0.2364 -0.4206 -0.5207
-0.5142 -0.3720 -0.1289 0.2031 0.6071 0.9578
1.1785 1.2552 1.1795 0.9915 0.7380 0.4968
0.3621 0.3892 0.6137 1.1037 1.7911 2.5850
3.4903 4.3993 5.2288 5.9264 6.3968 6.5885
6.5212 6.2313 5.7141 5.0548 4.3740 3.6605
2.9226 2.2007 1.5021 0.8428 0.2134 -0.3421
-0.8228 -1.2296 -1.5513 -1.8618 -2.1105 -2.3490
-2.5912 -2.7371 -2.8287 -2.8222 -2.7175 -2.5641
-2.3808 -2.2611 -2.2284 -2.2948 -2.4257 -2.5725
-2.7334 -2.8736 -3.0195 -3.1439 -3.2991 -3.4469
-3.5058 -3.5170 -3.4151 -3.2505 -3.0841 -2.9550
-2.9354 -2.9896 -3.0756 -3.1869 -3.2477 -3.2412
-3.2178 -3.1897 -3.1935 -3.2281 -3.3094 -3.4282
-3.5423 -3.6620 -3.7724 -3.8490 -3.8921 -3.8771
-3.7696 -3.5105 -3.0616 -2.4388 -1.6252 -0.7293
0.2181 1.1766 2.0146 2.7038 3.1517 3.3350
3.2312 2.8693 2.3493 1.6264 0.8156 -0.0831
-1.1192 -2.1732 -3.1888 -4.0894 -4.8862 -5.5660
-6.1646 -6.6873 -7.0567 -7.2877 -7.3111 -7.1287
-6.7706 -6.2160 -5.5118 -4.7094 -3.8995 -3.1411
-2.4304 -1.8262 -1.3446 -1.0211 -0.8593 -0.7723
-0.7592 -0.7751 -0.7330 -0.5984 -0.3898 -0.1130
0.1797 0.4556 0.7212 0.8951 1.0354 1.2093
1.3833 1.5264 1.6218 1.6227 1.4768 1.2524
0.9391 0.5893 0.2620 -0.0073 -0.0952 0.0161
0.3378 0.8381 1.4815 2.2025 2.9282 3.5950
4.1075 4.4367 4.5517 4.5274 4.4095 4.2244
4.0832 4.0224 4.0878 4.3067 4.6246 4.9725
5.2746 5.4831 5.6010 5.6150 5.5261 5.4167
5.2465 5.0529 4.9594 4.9211 5.0043 5.1979
5.4560 5.7562 6.0227 6.2369 6.3313 6.3332
6.2425 6.0555 5.8441 5.6197 5.4448 5.3120
5.2185 5.1829 5.1493 5.1558 5.2175 5.3195
5.4420 5.5009 5.4317 5.2493 4.8575 4.1308
3.1685 1.9238 0.4154 -1.2212 -2.9952 -4.7693
-6.5171 -8.1762 -9.5649 -10.6834 -11.4474 -11.8318
-11.8832 -11.5512 -10.8685 -9.9044 -8.7326 -7.4299
-6.1029 -4.8628 -3.7612 -2.8073 -2.0414 -1.4821
-1.0248 -0.6292 -0.2832 0.1217 0.5949 1.1383
1.8135 2.4830 3.0563 3.5220 3.7895 3.8840
3.8082 3.5828 3.2602 2.8478 2.3493 1.8219
1.2645 0.6950 0.1601 -0.3543 -0.8499 -1.3540
-1.8599 -2.3762 -2.8933 -3.4180 -3.9772 -4.5776
-5.2902 -6.0832 -6.9632 -7.9414 -8.9617 -10.0269
-11.0593 -11.9870 -12.7651 -13.3552 -13.7293 -13.8265
-13.6517 -13.2449 -12.6576 -11.8720 -10.9808 -10.0802
-9.1806 -8.3847 -7.6543 -7.0352 -6.5144 -5.9944
-5.4847 -4.9573 -4.4757 -4.0193 -3.5367 -3.0570
-2.5090 -1.8441 -1.0585 -0.1981 0.6828 1.5993
2.4671 3.2957 4.0990 4.7967 5.4438 6.0358
6.5155 6.9205 7.2338 7.4236 7.5003 7.4928
7.3909 7.1543 6.7428 6.1564 5.4485 4.6723
3.8839 3.1124 2.4428 1.8602 1.3206 0.8483
0.3770 -0.0532 -0.4628 -0.8453 -1.1184 -1.2904
-1.2689 -1.0417 -0.6031 0.0469 0.8044 1.6255
2.4550 3.2770 4.0186 4.6470 5.1586 5.4859
5.7253 5.8908 5.9600 6.0096 6.0629 6.1910
6.3949 6.6287 6.9354 7.2478 7.5424 7.7621
7.8089 7.6602 7.2814 6.7035 5.9217 5.0136
4.0177 2.9637 1.9631 1.0232 0.1750 -0.5975
-1.2811 -1.7786 -2.1284 -2.3173 -2.3126 -2.1545
-1.8244 -1.4270 -1.0080 -0.5750 -0.2169 0.1198
0.4368 0.7314 1.0195 1.3122 1.6414 1.9771
2.2623 2.4306 2.4194 2.1763 1.7321 1.1205
0.4004 -0.3646 -1.1408 -1.8525 -2.4772 -2.9223
-3.2104 -3.4077 -3.5068 -3.6378 -3.8510 -4.0932
-4.3607 -4.6496 -4.9451 -5.2453 -5.5362 -5.7541
-5.8859 -5.8897 -5.7531 -5.5390 -5.2725 -4.9872
-4.6440 -4.2456 -3.8117 -3.2880 -2.7325 -2.1330
-1.4466 -0.6779 0.1563 0.9680 1.6666 2.1398
2.3904 2.4652 2.3745 2.1753 1.8808 1.5170
1.1363 0.7015 0.1965 -0.3721 -1.0941 -2.0143
-3.1197 -4.4093 -5.8270 -7.2897 -8.7121 -9.9502
-10.9443 -11.6036 -11.7776 -11.4344 -10.5572 -9.2021
-7.4299 -5.3099 -3.0140 -0.6882 1.5375 3.5379
5.1913 6.4790 7.4198 7.9894 8.3167 8.5477
8.7291 8.8815 9.0227 9.1658 9.2425 9.2724
9.2406 9.0414 8.7693 8.4149 7.9136 7.3048
6.5651 5.7066 4.7695 3.7941 2.7963 1.7695
0.7800 -0.2300 -1.2624 -2.1967 -3.0841 -3.8519
-4.3812 -4.6740 -4.7245 -4.5355 -4.1203 -3.5190
-2.7578 -1.8488 -0.8032 0.3209 1.4655 2.5728
3.6033 4.5011 5.2034 5.6841 5.8740 5.7833
5.4419 4.9294 4.3459 3.7230 3.1965 2.8047
2.6195 2.6850 2.9160 3.3237 3.6997 3.9026
3.8708 3.4406 2.6560 1.5207 0.0674 -1.5907
-3.3750 -5.1790 -6.8698 -8.3333 -9.5958 -10.5432
-11.0931 -11.3175 -11.1697 -10.7078 -10.0363 -9.1741
-8.1706 -7.0839 -6.0178 -5.0406 -4.0783 -3.0954
-2.0835 -0.9987 0.0973 1.1719 2.2417 3.2180
4.0821 4.8060 5.3400 5.7075 5.9506 6.1648
6.3668 6.5735 6.7951 6.9784 7.1729 7.3347
7.3824 7.2739 6.9494 6.4968 5.9721 5.4905
5.1342 4.8668 4.7835 4.8050 4.8303 4.7966
4.6124 4.2907 3.8287 3.2676 2.5952 1.8433
1.0316 0.1469 -0.7546 -1.6739 -2.5492 -3.3769
-4.1203 -4.7656 -5.3323 -5.6793 -5.8037 -5.6634
-5.1827 -4.4542 -3.5087 -2.3818 -1.0988 0.2993
1.7320 3.1675 4.5226 5.6635 6.5454 7.1308
7.3412 7.2468 6.9092 6.3668 5.7458 5.0903
4.4412 3.8306 3.2461 2.6569 2.0247 1.3767
0.6668 -0.1271 -0.9314 -1.6608 -2.2191 -2.5923
-2.7241 -2.6549 -2.4576 -2.1611 -1.8694 -1.6449
-1.5710 -1.6646 -1.9096 -2.2837 -2.7746 -3.3975
-4.1465 -4.9592 -5.8476 -6.7641 -7.5590 -8.3446
-9.0469 -9.6772 -10.2776 -10.7564 -11.2296 -11.6289
-11.9815 -12.2424 -12.3621 -12.4388 -12.3977 -12.2293
-11.9656 -11.6130 -11.2212 -10.7817 -10.2467 -9.6548
-8.9777 -8.1070 -7.0559 -5.7934 -4.3495 -2.8653
-1.3073 0.2797 1.7610 3.1282 4.3356 5.2754
5.9525 6.3911 6.5024 6.3724 6.0423 5.4559
4.6657 3.6800 2.6616 1.7255 0.8791 0.1936
-0.3525 -0.7481 -0.9623 -1.0305 -0.9277 -0.5461
0.0842 0.9577 2.1051 3.3199 4.5123 5.5943
6.4070 6.9849 7.2365 7.1112 6.7044 6.0189
5.1454 4.1326 3.1067 2.2417 1.5581 1.1195
0.9614 1.1597 1.5992 2.2127 2.9150 3.5322
4.0484 4.2420 4.1476 3.7015 2.8486 1.7909
0.5237 -0.7116 -1.8395 -2.8457 -3.6406 -4.3345
-4.8620 -5.2005 -5.3632 -5.3679 -5.2604 -4.9910
-4.5440 -3.8941 -3.1113 -2.2771 -1.3803 -0.5695
0.1843 0.8931 1.4383 1.8994 2.1669 2.2650
2.3174 2.3296 2.4025 2.4427 2.5232 2.6831
2.8243 2.9814 3.0843 3.1956 3.3349 3.4340
3.4359 3.3396 3.1619 2.8813 2.6700 2.5746
2.5718 2.6943 2.8392 2.9178 2.8804 2.6616
2.2099 1.5674 0.7435 -0.2665 -1.3560 -2.4847
-3.5116 -4.3243 -4.9022 -5.1650 -5.1369 -4.8601
-4.3841 -3.7622 -3.0636 -2.3781 -1.7656 -1.2634
-0.8828 -0.7481 -0.8819 -1.1718 -1.5720 -2.0246
-2.4810 -2.8888 -3.2937 -3.6958 -4.0072 -4.3243
-4.5609 -4.6394 -4.5833 -4.2607 -3.6724 -2.7980
-1.6758 -0.3610 1.0315 2.3305 3.5593 4.5918
5.4512 6.2050 6.8315 7.4609 8.0706 8.6963
9.3780 10.0878 10.8827 11.7076 12.5689 13.4592
14.3027 15.0116 15.4782 15.6475 15.4343 14.8601
13.9483 12.6830 11.1633 9.4463 7.6143 5.8225
4.1728 2.7167 1.5403 0.6444 -0.0365 -0.5639
-1.0549 -1.6048 -2.2285 -2.8803 -3.6051 -4.3617
-5.0612 -5.7467 -6.4256 -7.1373 -7.8826 -8.6682
-9.4622 -10.2505 -11.0464 -11.7852 -12.4566 -12.9925
-13.3843 -13.6593 -13.7416 -13.5667 -13.1271 -12.4108
-11.4522 -10.3122 -9.0656 -7.8181 -6.5547 -5.3558
-4.2270 -3.1029 -2.0088 -0.8772 0.2890 1.5234
2.8869 4.3598 5.9394 7.5582 9.1265 10.5648
11.7740 12.6932 13.3264 13.7219 13.9529 14.0689
14.1138 14.1278 14.0614 13.8753 13.4433 12.6988
11.6337 10.2085 8.5364 6.6622 4.7189 2.7962
0.9043 -0.8417 -2.4231 -3.7959 -4.8153 -5.4147
-5.6289 -5.5007 -5.1089 -4.4945 -3.7585 -2.9281
-2.0247 -1.1475 -0.2198 0.6266 1.3345 1.9770
2.4876 2.8953 3.1142 3.1413 2.9935 2.6166
1.9517 0.8968 -0.4966 -2.2996 -4.4477 -6.8025
-9.3097 -11.7206 -13.8987 -15.7204 -17.0615 -17.7890
-17.8040 -17.1110 -15.7401 -13.8585 -11.4766 -8.7907
-6.0375 -3.2909 -0.8192 1.4748 3.4461 4.8424
5.9449 6.8193 7.4384 7.7461 7.7368 7.5759
7.1541 6.4153 5.4961 4.4290 3.3218 2.2959
1.4093 0.7032 0.1749 -0.1422 -0.3124 -0.3142
-0.1384 0.0673 0.3441 0.6920 1.0698 1.4701
1.7731 1.9975 2.1827 2.2585 2.2491 2.0957
1.8208 1.5112 1.1259 0.7117 0.2525 -0.2544
-0.7519 -1.2915 -1.8423 -2.3137 -2.7812 -3.1722
-3.4022 -3.4331 -3.2152 -2.7560 -2.0228 -1.1344
-0.1431 0.8884 1.8984 2.8420 3.6902 4.5038
5.1528 5.6831 6.0908 6.2947 6.4041 6.4303
6.4032 6.3789 6.3237 6.2068 6.0572 5.9010
5.7083 5.4147 5.0126 4.5627 4.0680 3.5808
3.1843 2.8626 2.6924 2.7083 2.7906 2.9458
3.1637 3.3751 3.6603 3.9848 4.3607 4.9237
5.5858 6.4097 7.3673 8.3951 9.4659 10.3394
10.9996 11.3119 11.2240 10.7705 9.8933 8.6654
7.1326 5.4614 3.6360 1.6927 -0.2179 -2.1369
-3.8782 -5.3923 -6.7072 -7.6872 -8.3924 -8.8431
-9.1087 -9.3098 -9.4903 -9.7222 -9.9775 -10.2655
-10.5489 -10.7518 -10.8556 -10.8631 -10.8051 -10.6602
-10.4816 -10.2786 -10.0897 -9.9466 -9.8054 -9.6511
-9.3846 -9.0498 -8.6103 -7.9341 -7.0438 -5.8954
-4.3917 -2.5278 -0.3498 2.1247 4.7329 7.3103
9.7876 11.9890 13.7836 15.0976 15.8401 16.0234
15.6577 14.8114 13.6237 12.1470 10.4927 8.6990
6.8296 5.0303 3.3339 1.7740 0.3666 -0.9072
-2.1051 -3.2274 -4.1522 -4.8125 -5.2296 -5.3932
-5.3512 -5.2156 -5.0238 -4.7826 -4.4768 -4.0952
-3.6379 -3.1264 -2.5830 -1.9789 -1.3710 -0.7501
-0.1029 0.5414 1.2344 1.8862 2.4595 2.9907
3.4096 3.7023 3.8725 3.9240 3.7968 3.4414
2.9056 2.1630 1.2606 0.3291 -0.5705 -1.3215
-1.8049 -2.0378 -2.0228 -1.7806 -1.4758 -1.1672
-0.8819 -0.7173 -0.6425 -0.6781 -0.8866 -1.2794
-1.8124 -2.3782 -2.8963 -3.2059 -3.2096 -2.8907
-2.2155 -1.2083 0.1038 1.6477 3.3488 5.2211
7.1307 8.8935 10.4731 11.7281 12.6025 13.1215
13.2122 12.8886 12.1938 11.1277 9.8063 8.3941
7.0157 5.7981 4.7974 4.0128 3.3750 2.8756
2.3603 1.6842 0.8397 -0.2058 -1.4543 -2.9506
-4.6404 -6.4640 -8.2904 -10.0140 -11.6384 -13.0505
-14.2279 -15.1089 -15.6232 -15.7859 -15.4895 -14.7554
-13.6893 -12.3950 -11.0492 -9.7316 -8.6196 -7.9070
-7.6246 -7.7284 -8.2446 -9.1359 -10.2721 -11.6627
-13.1777 -14.6628 -16.0001 -16.8960 -17.2635 -17.1092
-16.3340 -15.0032 -13.1936 -11.0118 -8.4962 -5.6645
-2.7158 0.2468 3.0468 5.6681 8.0715 10.1551
11.9628 13.2917 14.1829 14.5981 14.4074 13.7256
12.4986 10.8275 8.7860 6.4087 3.8950 1.3073
-1.2420 -3.5332 -5.5083 -7.1234 -8.2549 -8.9404
-9.2313 -9.1153 -8.6739 -8.0090 -7.1879 -6.2583
-5.2680 -4.2187 -3.0974 -1.9368 -0.6687 0.7939
2.4978 4.4159 6.5733 8.9870 11.4101 13.7752
15.9738 17.7731 19.1048 19.9053 20.2438 20.1840
19.8099 19.2609 18.6166 17.9975 17.5580 17.3504
17.3962 17.7777 18.4137 19.2254 20.1316 21.0182
21.7869 22.2741 22.4527 22.2666 21.7326 20.8966
19.8660 18.8111 17.7431 16.7780 15.9214 15.1527
14.4878 13.8677 13.2963 12.6819 11.9581 11.1913
10.3524 9.4022 8.4240 7.4028 6.2946 5.1247
3.9146 2.6783 1.3774 0.0233 -1.4038 -2.9450
-4.5703 -6.2798 -7.9978 -9.8073 -11.7048 -13.6397
-15.7579 -17.8752 -19.9821 -22.0199 -23.8482 -25.6185
-27.0961 -28.2202 -29.1441 -29.8259 -30.2514 -30.4075
-30.2542 -29.8408 -29.2582 -28.5241 -27.7498 -26.8716
-25.8691 -24.7936 -23.4909 -22.0423 -20.4479 -18.7477
-17.1177 -15.5718 -14.2579 -13.2021 -12.3782 -11.8114
-11.4224 -11.1587 -11.0165 -10.9389 -10.8538 -10.7762
-10.7201 -10.6574 -10.6294 -10.6462 -10.6902 -10.7117
-10.6341 -10.3834 -9.7896 -8.8544 -7.5292 -5.8431
-4.0214 -2.1454 -0.3947 1.0969 2.2799 3.1468
3.6733 3.9174 4.0923 4.1680 4.2456 4.3494
4.4102 4.5000 4.4729 4.3466 4.0418 3.5779
3.0205 2.3098 1.4513 0.5021 -0.3134 -0.9867
-1.4431 -1.6376 -1.5880 -1.2383 -0.6435 0.2234
1.3475 2.7241 4.3504 6.1562 8.1351 10.2243
12.4060 14.6589 16.9594 19.2600 21.3221 23.1560
24.7102 25.8044 26.4188 26.4441 25.8231 24.5353
22.6547 20.2924 17.5430 14.5794 11.5634 8.6784
5.9991 3.6003 1.5570 -0.1413 -1.4365 -2.4091
-3.0843 -3.4977 -3.7100 -3.6052 -3.2003 -2.4942
-1.4038 0.1000 1.9563 4.0352 6.2694 8.5727
10.7508 12.7259 14.4260 15.7222 16.6041 17.0099
16.9435 16.4282 15.4585 14.1052 12.4285 10.5487
8.5587 6.6359 4.8713 3.2338 1.8413 0.6096
-0.5902 -1.7218 -2.8421 -3.9662 -5.0267 -6.0694
-7.0851 -8.0399 -9.0050 -9.9514 -10.8604 -11.6927
-12.4811 -13.2993 -14.0381 -14.7171 -15.3203 -15.8159
-16.2835 -16.6997 -17.0691 -17.3973 -17.6536 -17.8602
-18.0538 -18.2203 -18.3933 -18.5682 -18.7374 -18.9909
-19.2929 -19.6361 -20.0804 -20.6228 -21.2381 -21.8750
-22.3510 -22.5904 -22.5726 -22.1359 -21.3363 -20.2300
-18.7945 -17.1364 -15.2875 -13.3265 -11.3271 -9.2566
-7.1262 -4.9023 -2.5017 0.0738 2.8157 5.6811
8.5222 11.2716 13.7966 15.9625 17.7403 19.0757
20.0044 20.5514 20.7824 20.8395 20.8563 20.9947
21.2809 21.7036 22.2553 22.7444 23.0587 23.0811
22.6416 21.7073 20.2868 18.5689 16.6742 14.7271
12.9606 11.4400 10.2990 9.5472 9.2236 9.3536
9.8782 10.7199 11.7252 12.8203 13.7723 14.4325
14.6897 14.5008 13.8911 12.8530 11.5961 10.1213
8.5493 7.0773 5.7671 4.7094 3.8958 3.4021
3.1252 3.1131 3.4993 4.1960 5.2341 6.5948
8.2744 10.1391 12.0665 13.9958 15.7278 17.2325
18.4463 19.3142 19.8697 20.0698 19.9735 19.6275
19.0018 18.1508 17.0604 15.6829 14.1071 12.3546
10.4328 8.4221 6.3095 4.1801 2.0788 -0.0039
-2.0332 -3.9952 -5.9096 -7.6799 -9.2678 -10.7622
-12.0640 -13.1469 -14.0148 -14.6722 -15.1538 -15.5120
-15.7477 -15.8861 -16.0385 -16.1012 -16.1377 -16.2387
-16.3041 -16.3116 -16.2574 -16.1320 -15.8552 -15.4578
-14.9116 -14.1859 -13.3527 -12.3960 -11.3271 -10.1665
-9.0022 -7.8519 -6.7391 -5.7627 -4.9865 -4.4208
-4.1206 -4.1280 -4.4170 -4.9641 -5.7525 -6.7999
-7.9034 -9.0312 -10.1020 -10.9137 -11.4458 -11.5936
-11.3570 -10.7660 -9.8719 -8.7254 -7.4049 -6.0124
-4.6237 -3.3238 -2.1548 -1.1392 -0.2545 0.5226
1.1847 1.6897 2.0348 2.1302 1.9497 1.4840
0.6909 -0.2265 -1.2215 -2.3035 -3.3070 -4.2356
-5.0445 -5.7094 -6.2677 -6.6802 -6.9776 -7.1001
-7.1188 -7.0402 -6.7999 -6.4754 -6.0096 -5.4551
-4.8014 -3.9925 -3.0965 -2.0220 -0.6941 0.7171
2.1470 3.8088 5.6455 7.4121 9.1123 10.7741
12.3480 13.7947 15.1648 16.4880 17.7225 18.8512
19.8154 20.5851 21.0882 21.2173 20.9994 20.5037
19.8042 18.9027 17.7767 16.4946 15.0638 13.4936
11.8037 9.9689 7.9788 5.8728 3.7275 1.6701
-0.0834 -1.4516 -2.3288 -2.5859 -2.3344 -1.5872
-0.4378 0.9210 2.3471 3.6891 4.8170 5.6128
6.1066 6.3179 6.3675 6.3338 6.3048 6.4077
6.6125 6.9323 7.2540 7.4729 7.4523 7.0259
6.2057 4.9460 3.2290 1.1482 -1.1869 -3.6969
-6.2631 -8.7843 -11.1447 -13.1816 -14.9060 -16.2190
-17.0065 -17.3628 -17.2534 -16.6474 -15.7636 -14.7489
-13.5005 -12.2099 -11.0699 -10.0291 -9.1874 -8.6132
-8.3925 -8.4383 -8.7703 -9.4829 -10.3704 -11.4534
-12.6869 -13.8773 -14.9968 -15.9469 -16.7278 -17.3525
-17.7864 -18.0660 -18.2054 -18.2035 -18.0165 -17.7462
-17.4011 -16.9691 -16.5277 -16.0255 -15.5027 -15.0117
-14.5750 -14.2224 -13.9110 -13.6464 -13.5080 -13.4603
-13.4285 -13.4098 -13.4359 -13.4705 -13.4649 -13.4275
-13.2882 -12.9899 -12.4129 -11.5123 -10.3676 -8.9592
-7.3479 -5.5496 -3.4856 -1.3094 0.8583 3.0756
5.2677 7.3962 9.4134 11.3267 13.1606 14.8608
16.4824 18.0629 19.6358 21.1714 22.6518 24.0948
25.4751 26.7086 27.7373 28.5734 29.1420 29.4571
29.5142 29.2570 28.7997 28.1413 27.3576 26.5141
25.5004 24.4623 23.3794 22.1964 21.0012 19.7696
18.5295 17.2390 15.9185 14.6092 13.2850 11.9926
10.7329 9.5265 8.3772 7.2512 6.1907 5.2312
4.4307 3.8135 3.4076 3.1888 3.1093 3.1813
3.3066 3.4749 3.6788 3.8434 3.9266 3.8593
3.5909 3.1205 2.4593 1.6326 0.6666 -0.4379
-1.5872 -2.7983 -4.0542 -5.3074 -6.5708 -7.8165
-9.0397 -10.1862 -11.2869 -12.2894 -13.1348 -13.8203
-14.2889 -14.5984 -14.6751 -14.5189 -14.2486 -13.8465
-13.3901 -12.9067 -12.4241 -12.0136 -11.6329 -11.3290
-11.1055 -10.9792 -11.0251 -11.2607 -11.6993 -12.2623
-12.9572 -13.7511 -14.5470 -15.3269 -15.9712 -16.4089
-16.5670 -16.3949 -15.8946 -15.0482 -13.9251 -12.5681
-11.0307 -9.3969 -7.7762 -6.1565 -4.5770 -3.1508
-1.8238 -0.6464 0.3991 1.3128 1.9824 2.4322
2.6959 2.8035 2.7969 2.7530 2.7296 2.7436
2.8549 3.0055 3.1869 3.3758 3.4824 3.5264
3.4581 3.3113 3.0588 2.6613 2.1694 1.6008
0.9920 0.3654 -0.2527 -0.9288 -1.6228 -2.3756
-3.2116 -4.0748 -5.0278 -5.9938 -6.9870 -7.9493
-8.7657 -9.4250 -9.8318 -9.9337 -9.7448 -9.2585
-8.4150 -7.2310 -5.8068 -4.1898 -2.4953 -0.8194
0.8237 2.3303 3.7153 4.9058 5.8344 6.5068
6.8762 7.0426 6.9136 6.6031 6.2197 5.7025
5.1283 4.5018 3.8883 3.2383 2.6127 2.0282
1.4306 0.9228 0.4898 0.2018 0.0110 -0.0619
0.0400 0.2167 0.4917 0.7947 1.0967 1.3352
1.5007 1.6448 1.7383 1.9094 2.1947 2.6314
3.2364 3.8901 4.5822 5.2938 5.9410 6.3852
6.5788 6.5302 6.1617 5.5136 4.6411 3.6021
2.4612 1.2623 0.0830 -1.0383 -2.0632 -2.9975
-3.7905 -4.4461 -4.9698 -5.2849 -5.3822 -5.2728
-4.9857 -4.5115 -3.9645 -3.3987 -2.8217 -2.3382
-1.9005 -1.4853 -1.0776 -0.6371 -0.1686 0.3458
0.8994 1.4764 2.0693 2.6426 3.1813 3.6844
4.0744 4.3587 4.5363 4.5045 4.2595 3.8293
3.1560 2.2152 1.0537 -0.3369 -1.9501 -3.7325
-5.6515 -7.6519 -9.6925 -11.6825 -13.5398 -15.1979
-16.5371 -17.5583 -18.2213 -18.4495 -18.2700 -17.6238
-16.5586 -15.1156 -13.3359 -11.4226 -9.4568 -7.6005
-5.9910 -4.7192 -3.8682 -3.4024 -3.3519 -3.6166
-4.1188 -4.7865 -5.5309 -6.3052 -6.9515 -7.4639
-7.8090 -7.8876 -7.7417 -7.3078 -6.5849 -5.6226
-4.4162 -3.0199 -1.4881 0.1129 1.6952 3.2065
4.5775 5.7689 6.7826 7.6402 8.4454 9.2515
10.0829 10.9919 11.9514 12.9502 13.9835 15.0309
16.0755 17.1239 18.1647 19.1560 20.1165 21.0601
21.9868 22.8827 23.7684 24.6671 25.4797 26.2176
26.8900 27.4118 27.7840 28.0281 28.1637 28.1618
28.0954 27.9795 27.7859 27.5399 27.1892 26.7759
26.2802 25.5938 24.7307 23.7066 22.4900 21.1274
19.5871 17.8673 16.0110 14.0041 11.9215 9.7752
7.6308 5.5444 3.5216 1.6045 -0.2163 -1.9679
-3.6699 -5.3991 -7.2292 -9.1660 -11.2234 -13.4342
-15.7674 -18.1643 -20.6023 -23.0824 -25.4784 -27.6601
-29.7213 -31.5206 -32.9636 -34.0708 -34.6955 -34.9218
-34.7591 -34.2092 -33.3348 -32.1500 -30.6911 -28.9947
-27.1963 -25.3287 -23.4144 -21.5048 -19.6466 -17.8894
-16.2500 -14.7472 -13.4183 -12.3391 -11.4469 -10.7745
-10.3574 -10.2125 -10.3481 -10.7399 -11.4319 -12.2970
-13.2995 -14.3946 -15.4504 -16.4127 -17.2142 -17.8267
-18.1783 -18.2232 -18.0362 -17.5920 -16.8850 -16.0386
-15.0380 -13.9953 -13.0161 -12.0669 -11.1776 -10.2835
-9.4765 -8.8172 -8.2897 -7.9185 -7.6501 -7.5276
-7.4527 -7.3330 -7.2012 -6.9851 -6.6111 -6.1397
-5.5347 -4.7519 -3.8962 -2.8414 -1.6892 -0.5230
0.7404 1.9870 3.2476 4.3942 5.4331 6.3590
7.1006 7.7496 8.2705 8.7568 9.2534 9.7509
10.2362 10.7094 11.1602 11.4782 11.6671 11.7007
11.5932 11.3519 11.0190 10.6720 10.3176 9.9697
9.6620 9.3590 9.0102 8.6960 8.3275 7.9656
7.6617 7.3446 7.1118 6.9472 6.8509 6.8219
6.8209 6.7443 6.6021 6.4226 6.1392 5.8212
5.5313 5.2480 5.0011 4.8636 4.8458 4.9356
5.0965 5.3948 5.8194 6.3178 6.9491 7.6907
8.5566 9.4993 10.4906 11.5810 12.7219 13.8601
15.1197 16.3944 17.5606 18.7352 19.7405 20.6289
21.3920 21.8652 22.1504 22.1738 21.9877 21.5903
20.9319 20.1127 19.1036 17.9795 16.7301 15.3433
13.9096 12.4236 10.9844 9.6284 8.3387 7.1885
6.2140 5.4649 4.8664 4.4259 4.1351 3.8891
3.7919 3.6254 3.4028 3.2392 2.9212 2.5836
2.1282 1.5446 0.8891 0.0334 -0.9158 -2.0184
-3.1949 -4.3807 -5.5543 -6.6382 -7.6286 -8.4730
-9.2390 -9.8824 -10.4687 -11.0261 -11.4703 -11.8425
-12.0922 -12.2587 -12.2699 -12.1128 -11.8463 -11.4357
-10.9111 -10.2705 -9.5261 -8.6554 -7.7399 -6.8066
-5.9481 -5.2102 -4.5864 -4.1806 -3.9206 -3.8972
-4.0253 -4.2629 -4.6482 -5.0110 -5.4384 -5.8667
-6.2324 -6.6261 -7.0020 -7.3920 -7.7997 -8.2299
-8.6919 -9.1090 -9.4643 -9.7234 -9.7842 -9.6327
-9.2932 -8.6835 -7.8081 -6.7018 -5.3645 -3.8673
-2.2644 -0.5839 1.1378 2.8679 4.5372 6.0587
7.5045 8.7876 9.8210 10.6673 11.2303 11.6006
11.7503 11.6783 11.4734 11.1265 10.7197 10.2745
9.8687 9.4544 9.1355 9.0036 8.9391 9.0158
9.1907 9.4609 9.8116 10.1483 10.5130 10.8674
11.2022 11.5062 11.6726 11.6792 11.5352 11.1985
10.7253 10.1530 9.5367 8.9541 8.3714 7.8655
7.4222 6.9584 6.5637 6.2168 5.8380 5.5294
5.3134 5.1722 5.1207 5.1329 5.2676 5.5014
5.8100 6.2140 6.6432 7.0641 7.4035 7.5840
7.5672 7.2820 6.7190 5.8736 4.7373 3.3916
1.8934 0.3083 -1.2881 -2.8236 -4.2367 -5.4870
-6.5485 -7.4023 -8.0466 -8.5208 -8.8322 -9.0641
-9.1726 -9.1688 -9.1614 -9.1221 -9.0557 -8.9659
-8.8902 -8.8116 -8.7723 -8.8144 -8.9266 -9.1651
-9.5691 -10.1321 -10.8447 -11.7331 -12.6879 -13.6914
-14.7042 -15.5954 -16.3660 -16.9393 -17.3171 -17.4976
-17.4321 -17.1460 -16.6671 -16.0911 -15.4028 -14.6780
-13.9907 -13.3267 -12.7525 -12.2157 -11.7051 -11.2132
-10.7259 -10.2742 -9.8571 -9.4803 -9.1483 -8.8892
-8.7013 -8.5890 -8.5816 -8.7050 -8.9005 -9.1184
-9.3129 -9.3914 -9.3437 -9.2035 -8.9547 -8.6452
-8.3178 -8.0083 -7.7371 -7.4603 -7.2658 -7.1049
-6.9403 -6.7523 -6.4746 -6.1005 -5.5432 -4.8324
-3.9244 -2.8134 -1.5443 -0.1079 1.4501 3.1615
4.9365 6.6731 8.4042 10.0267 11.5080 12.8491
13.9993 14.9897 15.7930 16.4271 16.8844 17.1584
17.2772 17.2772 17.1967 17.0733 16.9386 16.7712
16.6534 16.5356 16.3467 16.1278 15.8837 15.5779
15.1646 14.7073 14.1565 13.4784 12.7125 11.8793
11.0423 10.2343 9.4581 8.7287 8.0815 7.4970
6.9743 6.4683 5.9371 5.3807 4.7775 4.1855
3.5982 3.0044 2.4489 1.9448 1.5044 1.1312
0.7469 0.3765 0.0632 -0.2902 -0.6269 -1.0150
-1.5144 -2.0849 -2.8293 -3.7364 -4.8119 -6.0080
-7.3574 -8.7733 -10.1443 -11.5704 -12.9947 -14.3891
-15.6946 -16.9374 -18.0933 -19.0743 -19.9216 -20.5585
-20.9886 -21.2019 -21.2084 -21.0840 -20.7969 -20.4163
-20.0095 -19.5887 -19.2230 -18.9397 -18.7554 -18.6357
-18.6367 -18.6685 -18.6713 -18.7339 -18.6769 -18.5918
-18.4917 -18.2776 -18.0325 -17.6800 -17.2395 -16.7121
-16.0593 -15.2747 -14.3451 -13.2603 -12.0352 -10.6502
-9.0698 -7.3415 -5.4983 -3.5587 -1.5397 0.4382
2.3198 4.0873 5.6771 7.1089 8.3892 9.4656
10.3306 11.0058 11.4678 11.7184 11.7764 11.6371
11.3013 10.8702 10.3297 9.6928 9.0260 8.2573
7.4914 6.7086 5.8829 5.1104 4.4043 3.7740
3.1877 2.6986 2.3030 1.9766 1.7438 1.5792
1.5015 1.4735 1.5146 1.5866 1.6138 1.6717
1.7082 1.6904 1.6577 1.6138 1.5941 1.6549
1.8307 2.0982 2.5050 2.9810 3.5112 4.0639
4.5081 4.8514 5.0262 4.9757 4.6886 4.2678
3.7422 3.1054 2.4676 1.8653 1.3388 0.8544
0.4597 0.1960 0.0389 0.0155 0.1259 0.3840
0.7955 1.3585 2.0654 2.9165 3.8760 4.8981
5.9717 7.0977 8.2367 9.3365 10.3886 11.3368
12.1804 12.8715 13.4139 13.8441 14.0797 14.1312
13.9956 13.6570 13.1221 12.3955 11.5005 10.4568
9.2794 8.0347 6.7591 5.4686 4.2772 3.1428
2.0552 0.9993 -0.0425 -1.0412 -2.0690 -3.0902
-4.0918 -5.0476 -5.9603 -6.7861 -7.5417 -8.2075
-8.7256 -9.1549 -9.3887 -9.4476 -9.3363 -9.0408
-8.6359 -8.0832 -7.4407 -6.7580 -6.0052 -5.1776
-4.2788 -3.3072 -2.2617 -1.1600 -0.0219 1.1190
2.2197 3.2933 4.2874 5.1469 5.8922 6.4860
6.8854 7.0733 7.1238 7.0490 6.8003 6.4935
6.1391 5.7454 5.3320 4.9112 4.5502 4.2220
3.9685 3.7562 3.5870 3.4860 3.4055 3.3850
3.4355 3.6263 3.9545 4.4230 5.1001 5.9661
6.9920 8.1497 9.3589 10.5167 11.5585 12.3842
12.9481 13.2390 13.2352 12.9790 12.5002 11.8250
10.9927 10.0444 9.0484 8.0328 6.9630 5.9174
4.9299 3.9947 3.1016 2.2469 1.4519 0.6991
-0.0163 -0.7439 -1.3919 -2.0419 -2.7414 -3.3858
-4.0834 -4.7539 -5.3524 -5.9313 -6.4625 -6.9226
-7.3622 -7.8129 -8.2618 -8.7341 -9.1830 -9.5626
-9.8871 -10.2135 -10.4333 -10.5511 -10.6474 -10.6072
-10.5016 -10.3482 -10.1079 -9.8142 -9.5505 -9.3279
-9.1016 -9.0118 -8.9623 -8.9277 -8.8912 -8.7500
-8.5433 -8.1776 -7.6624 -7.0030 -6.2699 -5.4927
-4.6978 -4.0273 -3.4737 -3.1398 -2.9958 -2.9995
-3.1398 -3.2904 -3.4101 -3.4194 -3.2866 -3.0033
-2.5329 -1.9100 -1.1722 -0.3651 0.4429 1.3154
2.1823 2.9464 3.7095 4.3875 4.9486 5.4358
5.8118 6.1176 6.3495 6.5337 6.6927 6.8648
7.0107 7.1182 7.2229 7.2061 7.1285 6.9564
6.6226 6.1924 5.6069 4.9046 4.1266 3.2681
2.3347 1.3622 0.4242 -0.5045 -1.3957 -2.1990
-2.9154 -3.4924 -3.9525 -4.2480 -4.3135 -4.1938
-3.8552 -3.3194 -2.6376 -1.8147 -0.9253 0.0295
1.0264 1.9831 2.9127 3.7497 4.4370 4.9804
5.3516 5.5462 5.5845 5.4928 5.2609 4.9813
4.7550 4.5698 4.3959 4.2528 4.1415 4.0199
3.8722 3.7057 3.5131 3.2727 3.0221 2.7565
2.4918 2.2852 2.1748 2.1496 2.1608 2.2337
2.3310 2.4292 2.5900 2.8061 3.0558 3.3457
3.6683 3.9863 4.2528 4.4342 4.4782 4.3818
4.0788 3.5486 2.8528 2.0214 1.0891 0.0837
-0.9178 -1.9381 -2.9678 -3.9796 -4.9915 -5.9875
-6.9666 -7.8831 -8.7865 -9.6253 -10.3838 -11.0608
-11.5761 -11.9652 -12.1821 -12.2148 -12.0736 -11.7622
-11.3152 -10.7550 -10.0929 -9.3457 -8.5386 -7.7110
-6.9198 -6.1464 -5.4535 -4.8737 -4.4033 -4.0685
-3.8263 -3.6888 -3.6037 -3.5251 -3.4625 -3.3774
-3.2464 -3.0632 -2.8471 -2.5516 -2.2019 -1.8334
-1.4425 -1.1348 -0.8533 -0.6551 -0.5718 -0.5484
-0.6513 -0.8038 -1.0198 -1.2601 -1.5079 -1.7474
-1.9269 -2.1280 -2.2963 -2.4534 -2.5806 -2.6648
-2.7770 -2.8125 -2.7162 -2.5226 -2.2430 -1.8325
-1.3050 -0.6822 0.0660 0.8693 1.7231 2.5722
3.3559 4.0760 4.7110 5.2572 5.6901 6.0586
6.3925 6.6431 6.8563 7.1107 7.3613 7.5970
7.8074 7.9477 8.0131 7.9402 7.7662 7.4848
7.0714 6.6225 6.0717 5.4433 4.8064 4.1256
3.4494 2.8107 2.1851 1.5978 1.1162 0.6084
0.0706 -0.4147 -0.9066 -1.3574 -1.7548 -2.0616
-2.3066 -2.5095 -2.6162 -2.6545 -2.6246 -2.5432
-2.3758 -2.1617 -1.9597 -1.7408 -1.5921 -1.5052
-1.4893 -1.5416 -1.5800 -1.6595 -1.6800 -1.6202
-1.5547 -1.4014 -1.2218 -1.0245 -0.7449 -0.4680
-0.2062 0.1454 0.5850 1.0161 1.4725 1.9906
2.5273 3.1053 3.6898 4.2060 4.6661 5.0767
5.3843 5.5845 5.6948 5.7060 5.6219 5.4545
5.2020 4.8616 4.4632 4.0012 3.4691 2.9145
2.3684 1.8531 1.3499 0.8272 0.3633 -0.0893
-0.5719 -0.9936 -1.4322 -1.8344 -2.2075 -2.6087
-3.0015 -3.4606 -3.9310 -4.4444 -5.0224 -5.6172
-6.2213 -6.8020 -7.3426 -7.8055 -8.1440 -8.3526
-8.4442 -8.3049 -7.9551 -7.3931 -6.5561 -5.5480
-4.3519 -2.9912 -1.5744 -0.1155 1.3658 2.7667
4.0919 5.3497 6.4289 7.4146 8.3105 9.0343
9.6684 10.2388 10.6924 11.0805 11.4798 11.8202
12.1504 12.4814 12.7479 13.0220 13.2744 13.5139
13.7308 13.8926 13.9964 13.9973 13.9132 13.7046
13.4175 13.0453 12.5459 11.9858 11.3143 10.5951
9.8470 9.0792 8.3601 7.5801 6.8077 6.1091
5.3759 4.5988 3.8609 3.1240 2.3225 1.5332
0.7411 -0.0201 -0.7318 -1.3911 -1.8961 -2.3225
-2.6059 -2.7190 -2.7714 -2.7340 -2.6452 -2.5217
-2.3936 -2.2627 -2.1430 -2.0448 -1.9616 -1.9625
-2.0186 -2.1710 -2.3506 -2.6143 -2.9557 -3.1679
-3.3971 -3.5991 -3.6982 -3.7880 -3.8095 -3.7861
-3.7543 -3.6683 -3.5654 -3.4644 -3.3597 -3.2755
-3.1857 -3.1006 -3.0146 -2.9173 -2.8238 -2.7583
-2.7172 -2.7237 -2.8051 -2.9024 -3.0221 -3.1399
-3.2269 -3.2708 -3.2428 -3.1726 -3.0230 -2.7789
-2.5021 -2.1159 -1.6118 -1.0647 -0.4812 0.0556
0.5316 0.9646 1.2760 1.4547 1.5061 1.4126
1.1563 0.7523 0.2193 -0.4344 -1.1938 -2.0700
-2.9949 -3.9217 -4.8709 -5.7238 -6.5056 -7.2210
-7.7934 -8.2413 -8.5247 -8.6855 -8.6986 -8.5621
-8.2946 -7.9009 -7.4707 -6.9218 -6.3392 -5.7874
-5.1244 -4.4978 -3.8712 -3.1988 -2.6293 -2.0289
-1.4033 -0.8141 -0.2408 0.2782 0.7748 1.2321
1.6501 2.0681 2.4590 2.8331 3.1932 3.5308
3.8712 4.2003 4.5314 4.8943 5.2833 5.6658
6.0408 6.3513 6.6038 6.8338 6.9236 6.8993
6.7786 6.5018 6.1278 5.6751 5.1308 4.5445
3.9198 3.2595 2.5628 1.8016 1.0132 0.1575
-0.7421 -1.6380 -2.5545 -3.4523 -4.3304 -5.1206
-5.8127 -6.3990 -6.8161 -7.0649 -7.1294 -7.0396
-6.7750 -6.3738 -5.9230 -5.4059 -4.8709 -4.3360
-3.8263 -3.3905 -2.9903 -2.6779 -2.4208 -2.1935
-2.0158 -1.7867 -1.5669 -1.3509 -1.0806 -0.8459
-0.5943 -0.3540 -0.1913 -0.0781 -0.0510 -0.0660
-0.1417 -0.2726 -0.4260 -0.6551 -0.8945 -1.1461
-1.4229 -1.6866 -1.9644 -2.2253 -2.4376 -2.6125
-2.7256 -2.7705 -2.7752 -2.7079 -2.5620 -2.3366
-2.0906 -1.8653 -1.6081 -1.3668 -1.1218 -0.9123
-0.7786 -0.6514 -0.5579 -0.5663 -0.6813 -0.8936
-1.2499 -1.6979 -2.2160 -2.7986 -3.4027 -3.9881
-4.5034 -4.9252 -5.2272 -5.4367 -5.4947 -5.4283
-5.2890 -5.0393 -4.7522 -4.3790 -3.9386 -3.4728
-2.9417 -2.4180 -1.8279 -1.2546 -0.7234 -0.1501
0.3193 0.7373 1.0749 1.3817 1.6576 1.8736
2.1242 2.3122 2.5254 2.7405 2.9593 3.2436
3.4999 3.7739 4.0610 4.3752 4.6801 4.9195
5.1177 5.2487 5.3235 5.3440 5.3001 5.2159
5.1729 5.1682 5.2019 5.3263 5.4619 5.6545
5.8687 6.0772 6.3400 6.5495 6.7272 6.8936
7.0666 7.1994 7.2939 7.4856 7.5978 7.6483
7.6811 7.6483 7.5857 7.4080 7.1920 6.9002
6.5149 6.1296 5.6807 5.1785 4.6997 4.2209
3.7168 3.2081 2.6769 2.1438 1.6454 1.1404
0.6560 0.1874 -0.2811 -0.6739 -1.0713 -1.4753
-1.7605 -1.9925 -2.1748 -2.2553 -2.3198 -2.2964
-2.2225 -2.2066 -2.2076 -2.3114 -2.5246 -2.8295
-3.2718 -3.8526 -4.5231 -5.2422 -5.9661 -6.6544
-7.3043 -7.8458 -8.2928 -8.6510 -8.9044 -9.1036
-9.2177 -9.2177 -9.1765 -9.0840 -8.9035 -8.6557
-8.2956 -7.8963 -7.4352 -6.8975 -6.3551 -5.7641
-5.1712 -4.5773 -3.9872 -3.4635 -3.0109 -2.6022
-2.2712 -2.0224 -1.8073 -1.6240 -1.4239 -1.2275
-1.0161 -0.7702 -0.5289 -0.2717 0.0116 0.3202
0.6419 0.9954 1.3648 1.7810 2.2598 2.7564
3.3175 3.9300 4.5725 5.2271 5.8631 6.4971
7.1096 7.6605 8.1730 8.6349 8.9950 9.3026
9.5327 9.6711 9.7600 9.7543 9.6805 9.5290
9.2830 9.0352 8.7294 8.3375 7.9158 7.3808
6.7262 5.9902 5.1355 4.2050 3.2286 2.1915
1.1516 0.1809 -0.7309 -1.5352 -2.1777 -2.6602
-2.9473 -3.0614 -3.0109 -2.8033 -2.4891 -2.1169
-1.7456 -1.4005 -1.1293 -0.9685 -0.8918 -0.9152
-1.0611 -1.3098 -1.6764 -2.1141 -2.5742 -3.0661
-3.5243 -3.9059 -4.2248 -4.4894 -4.6886 -4.7980
-4.8476 -4.8252 -4.7223 -4.5614 -4.3286 -4.0303
-3.6880 -3.2859 -2.8557 -2.4274 -1.9691 -1.5417
-1.1424 -0.7796 -0.4878 -0.2250 -0.0436 0.0892
0.1603 0.1622 0.1865 0.1500 0.1042 0.1098
0.1135 0.1350 0.2622 0.4567 0.6269 0.8617
1.1591 1.5013 1.8530 2.1700 2.4945 2.7685
2.9958 3.1856 3.3147 3.4269 3.4867 3.5335
3.6139 3.6906 3.7851 3.9291 4.0965 4.2704
4.4631 4.6417 4.8184 4.9559 5.0354 5.0831
5.0896 5.0644 4.9905 4.9325 4.9091 4.9017
4.9475 5.0326 5.1551 5.3272 5.5535 5.8284
6.0856 6.3194 6.5466 6.7159 6.8655 6.9871
7.0947 7.2462 7.3939 7.5838 7.8129 8.0588
8.3272 8.5694 8.7527 8.8341 8.8257 8.6789
8.3600 7.9111 7.3238 6.6261 5.8509 5.0064
4.1142 3.2314 2.3710 1.5097 0.6952 -0.0698
-0.7833 -1.4473 -2.0692 -2.6144 -3.1213 -3.5646
-3.9311 -4.2285 -4.4614 -4.6522 -4.7672 -4.8476
-4.9000 -4.9178 -4.9683 -5.0627 -5.2124 -5.4284
-5.6781 -5.9717 -6.3018 -6.6282 -6.9761 -7.3427
-7.7130 -8.1039 -8.4724 -8.8465 -9.2626 -9.6498
-10.0351 -10.3998 -10.6785 -10.9086 -11.0385 -11.1162
-11.1330 -11.0516 -10.9675 -10.8281 -10.6729 -10.5382
-10.4017 -10.3072 -10.2343 -10.1997 -10.1978 -10.2315
-10.3016 -10.3746 -10.4746 -10.5971 -10.7533 -10.9291
-11.0975 -11.2546 -11.3752 -11.4594 -11.4622 -11.3724
-11.1882 -10.8805 -10.4438 -9.8696 -9.1747 -8.3751
-7.4783 -6.5123 -5.5294 -4.5503 -3.5571 -2.6004
-1.7073 -0.8656 -0.0483 0.7429 1.4377 2.0680
2.6460 3.1500 3.5849 3.9403 4.2152 4.4032
4.5855 4.7436 4.8408 4.9250 4.9839 5.0410
5.0962 5.1130 5.1382 5.1803 5.1925 5.2224
5.2467 5.2121 5.1822 5.1242 5.0354 4.9793
4.9465 4.9334 4.9484 5.0110 5.1102 5.2505
5.4020 5.5983 5.8368 6.0360 6.2838 6.4980
6.6719 6.8636 6.9721 7.0554 7.0834 7.0366
6.9815 6.8515 6.6598 6.4465 6.1912 5.8677
5.5245 5.1803 4.7866 4.3779 3.9290 3.4867
3.0546 2.6263 2.2691 1.9249 1.6360 1.4255
1.2600 1.1543 1.0945 1.0739 1.0879 1.0982
1.1375 1.2002 1.1983 1.1871 1.1918 1.1796
1.1824 1.2245 1.2507 1.3423 1.4742 1.5742
1.7211 1.7678 1.7407 1.6584 1.4714 1.2133
0.8729 0.4548 -0.0436 -0.5346 -1.0742 -1.6288
-2.1356 -2.6126 -3.0241 -3.4187 -3.7563 -4.0210
-4.2417 -4.3941 -4.5119 -4.6101 -4.6616 -4.7036
-4.7467 -4.7635 -4.7766 -4.7728 -4.7644 -4.7925
-4.8411 -4.9281 -5.0702 -5.2143 -5.4387 -5.7398
-6.0475 -6.4291 -6.8452 -7.3053 -7.8290 -8.3611
-8.9195 -9.4955 -10.0763 -10.6729 -11.2378 -11.7456
-12.2001 -12.5498 -12.7911 -12.9136 -12.8940 -12.7668
-12.5442 -12.2076 -11.7746 -11.2602 -10.6561 -10.0089
-9.3038 -8.5398 -7.7570 -6.9490 -6.1644 -5.3910
-4.5998 -3.8424 -3.1269 -2.4480 -1.8242 -1.2519
-0.7263 -0.2653 0.1172 0.4408 0.7213 0.9383
1.0786 1.1693 1.1955 1.1356 1.0215 0.8448
0.6138 0.3454 0.0574 -0.2391 -0.5197 -0.7160
-0.8507 -0.9115 -0.8760 -0.7394 -0.5103 -0.1877
0.2201 0.6615 1.1571 1.6584 2.1400 2.5926
3.0172 3.4231 3.7738 4.0992 4.3957 4.6996
5.0148 5.3121 5.6058 5.9153 6.2221 6.5157
6.8243 7.1030 7.3611 7.5931 7.7726 7.9344
8.0532 8.1411 8.2019 8.1990 8.1663 8.0765
7.9194 7.6969 7.4415 7.2152 6.9281 6.6354
6.3436 6.0285 5.7348 5.4169 5.1101 4.7781
4.4434 4.1347 3.7822 3.3988 3.0219 2.6403
2.2373 1.8267 1.4283 1.0888 0.7924 0.5193
0.3314 0.1780 0.0807 0.0779 0.0891 0.1546
0.2621 0.3772 0.4810 0.5764 0.6615 0.7176
0.7858 0.8204 0.8681 0.9158 0.9560 1.0271
1.0907 1.1852 1.2656 1.3273 1.3647 1.3423
1.2525 1.0739 0.8223 0.5100 0.1312 -0.2971
-0.7366 -1.1827 -1.6223 -2.0403 -2.4190 -2.7585
-3.0521 -3.2523 -3.3486 -3.3570 -3.2261 -2.9296
-2.5481 -2.0094 -1.3557 -0.6553 0.1864 1.0627
1.9473 2.8816 3.8140 4.7417 5.6320 6.4661
7.2760 8.0279 8.6760 9.2670 9.7842 10.2461
10.6473 10.9588 11.2356 11.4656 11.6218 11.6732
11.6564 11.5769 11.3908 11.1542 10.8624 10.5276
10.1610 9.7439 9.3175 8.8658 8.3636 7.8558
7.3312 6.7682 6.1828 5.5777 4.9642 4.3536
3.7635 3.2136 2.6702 2.1755 1.7089 1.2441
0.8578 0.4473 0.0162 -0.3981 -0.8507 -1.3080
-1.7569 -2.1787 -2.6014 -3.0222 -3.4178 -3.8312
-4.2950 -4.8028 -5.3415 -5.9755 -6.6835 -7.4139
-8.1985 -8.9906 -9.7817 -10.5664 -11.2930 -11.9598
-12.5396 -12.9988 -13.3682 -13.6497 -13.7899 -13.8741
-13.8834 -13.7909 -13.6768 -13.4598 -13.1746 -12.8360
-12.4096 -11.9392 -11.4408 -10.9273 -10.4083 -9.8687
-9.2964 -8.7474 -8.1957 -7.6626 -7.1445 -6.5993
-6.0550 -5.4659 -4.8636 -4.2473 -3.5796 -2.9147
-2.2676 -1.6270 -1.0210 -0.4608 0.0498 0.5127
0.9242 1.2992 1.6799 2.0521 2.4317 2.8516
3.3052 3.7999 4.3367 4.8997 5.4730 6.0303
6.5774 7.1030 7.5911 8.0494 8.4655 8.8667
9.2249 9.5457 9.8440 10.1002 10.3462 10.5744
10.7726 10.9195 11.0270 11.0850 11.0953 11.0457
10.9251 10.7857 10.6165 10.4369 10.2330 10.0404
9.9085 9.7598 9.6261 9.5344 9.4624 9.4222
9.3867 9.3745 9.3914 9.4175 9.4334 9.4362
9.4465 9.4232 9.3745 9.2876 9.1015 8.8518
8.5170 8.0980 7.6276 7.0861 6.5400 5.9845
5.4065 4.8604 4.3330 3.8270 3.3847 2.9872
2.6085 2.2671 1.9183 1.5732 1.2394 0.9018
0.5670 0.2284 -0.1064 -0.4402 -0.7348 -1.0621
-1.4306 -1.8093 -2.2404 -2.6772 -3.2130 -3.8162
-4.4484 -5.1433 -5.8250 -6.5526 -7.2951 -7.9825
-8.6399 -9.2422 -9.7864 -10.2755 -10.6870 -11.0228
-11.3024 -11.5502 -11.7456 -11.9028 -12.0561 -12.1702
-12.2862 -12.4265 -12.5602 -12.6892 -12.8164 -12.9474
-13.0596 -13.1503 -13.2288 -13.2887 -13.3336 -13.3514
-13.3551 -13.3336 -13.2635 -13.1559 -13.0138 -12.8379
-12.6116 -12.3554 -12.0636 -11.7045 -11.2958 -10.8114
-10.2437 -9.6078 -8.8980 -8.1237 -7.2792 -6.4142
-5.5267 -4.6214 -3.7498 -2.8970 -2.1226 -1.4362
-0.8134 -0.2766 0.2004 0.6268 1.0056 1.3245
1.6471 1.9557 2.1895 2.4027 2.5692 2.6973
2.7693 2.7665 2.7394 2.6487 2.4888 2.2877
2.0174 1.7023 1.3628 0.9869 0.5922 0.1452
-0.2925 -0.7245 -1.1603 -1.5419 -1.9010 -2.2292
-2.4902 -2.6903 -2.8764 -3.0036 -3.0905 -3.1439
-3.1345 -3.1504 -3.1551 -3.1635 -3.2131 -3.2888
-3.4450 -3.6517 -3.8995 -4.2231 -4.6299 -5.0844
-5.5622 -6.1093 -6.6798 -7.2755 -7.8693 -8.4370
-9.0262 -9.5723 -10.1072 -10.6075 -11.0864 -11.5296
-11.8560 -12.1431 -12.3545 -12.4770 -12.5237 -12.5069
-12.4564 -12.3423 -12.1749 -11.9682 -11.7316 -11.4361
-11.1088 -10.7534 -10.3401 -9.8744 -9.3525 -8.7886
-8.1705 -7.5177 -6.8014 -6.0579 -5.3060 -4.4671
-3.5956 -2.7034 -1.7935 -0.8817 0.0301 0.8840
1.7088 2.4953 3.2359 3.9607 4.5985 5.1980
5.7516 6.1893 6.5886 6.9271 7.1815 7.3825
7.5032 7.5584 7.5453 7.4471 7.2769 7.0562
6.7859 6.4605 6.1060 5.7376 5.3373 4.9099
4.4928 4.0486 3.5614 3.0919 2.6150 2.1081
1.5984 1.0962 0.5941 0.1152 -0.3458 -0.8106
-1.2174 -1.5840 -1.9450 -2.2713 -2.5762 -2.8512
-3.0934 -3.2711 -3.4291 -3.5759 -3.6638 -3.7415
-3.7882 -3.8219 -3.8340 -3.7966 -3.7555 -3.7031
-3.6161 -3.5301 -3.4357 -3.3150 -3.2150 -3.1009
-2.9662 -2.8427 -2.6969 -2.5341 -2.3611 -2.1797
-1.9590 -1.6915 -1.4072 -1.0958 -0.7517 -0.3814
-0.0166 0.3500 0.7053 1.0626 1.4610 1.8425
2.2596 2.7244 3.1873 3.7054 4.2525 4.8426
5.4617 6.0649 6.7017 7.3274 7.9118 8.4720
9.0004 9.4914 9.9094 10.2582 10.5603 10.7800
10.9577 11.1466 11.2888 11.4104 11.5478 11.6778
11.8116 11.9556 12.1024 12.2473 12.3867 12.5092
12.5971 12.7280 12.8365 12.8468 12.8543 12.7636
12.6560 12.5204 12.2857 12.0323 11.7087 11.3655
10.9933 10.6070 10.2077 9.8374 9.5054 9.1416
8.8208 8.5515 8.3074 8.0858 7.8847 7.7117
7.5125 7.3068 7.1010 6.8289 6.5222 6.1771
5.7824 5.3476 4.8828 4.4096 3.9345 3.4922
3.0760 2.7094 2.3849 2.1100 1.9061 1.7359
1.6330 1.5741 1.5376 1.5881 1.6807 1.7677
1.9248 2.1118 2.3045 2.5037 2.6402 2.7599
2.8581 2.8759 2.8272 2.7365 2.6019 2.4504
2.3101 2.1408 1.9491 1.7695 1.5610 1.3235
1.0728 0.7988 0.5108 0.2134 -0.0849 -0.3879
-0.6816 -0.9528 -1.2128 -1.4559 -1.6616 -1.8431
-1.9796 -2.0647 -2.1189 -2.1386 -2.1358 -2.1199
-2.0993 -2.0956 -2.1264 -2.1994 -2.3181 -2.4668
-2.6520 -2.8587 -3.0364 -3.2150 -3.3375 -3.3842
-3.4086 -3.3272 -3.2010 -3.0476 -2.8185 -2.5688
-2.2676 -1.9403 -1.5868 -1.1903 -0.7480 -0.2823
0.1928 0.7334 1.3253 1.9145 2.4943 3.0694
3.6203 4.1215 4.5807 4.9875 5.3354 5.6150
5.8086 5.9040 5.8984 5.8189 5.6103 5.2933
4.9127 4.4778 4.0112 3.5258 3.0620 2.6206
2.2250 1.8649 1.5498 1.2804 1.0083 0.7586
0.5257 0.2732 0.0357 -0.2065 -0.4749 -0.7246
-1.0014 -1.2932 -1.5822 -1.8702 -2.1461 -2.4163
-2.6427 -2.8316 -2.9999 -3.1458 -3.2608 -3.3768
-3.4937 -3.6050 -3.7097 -3.8060 -3.9136 -4.0099
-4.1193 -4.2007 -4.2615 -4.3110 -4.3307 -4.3344
-4.3363 -4.3035 -4.2156 -4.1436 -4.0576 -3.9734
-3.8949 -3.8070 -3.7471 -3.7060 -3.7125 -3.7078
-3.7209 -3.8107 -3.8902 -3.9903 -4.1259 -4.2886
-4.5046 -4.7309 -5.0031 -5.3164 -5.6474 -5.9785
-6.3030 -6.6387 -6.9604 -7.2765 -7.5421 -7.7263
-7.8909 -7.9760 -7.9639 -7.9302 -7.8451 -7.6824
-7.4953 -7.2905 -7.0455 -6.8117 -6.5910 -6.3815
-6.2244 -6.0963 -6.0103 -5.9691 -5.9476 -5.9373
-5.9224 -5.8887 -5.8055 -5.6989 -5.5567 -5.3790
-5.1798 -4.9357 -4.7076 -4.4859 -4.2605 -4.0782
-3.8883 -3.7378 -3.6461 -3.5507 -3.4937 -3.4722
-3.4563 -3.4628 -3.4712 -3.4937 -3.5507 -3.6125
-3.6826 -3.7743 -3.8837 -4.0090 -4.1221 -4.2278
-4.3428 -4.4251 -4.4812 -4.5261 -4.5224 -4.4756
-4.4223 -4.3045 -4.1493 -3.9660 -3.6863 -3.4189
-3.0757 -2.6221 -2.2060 -1.7346 -1.1997 -0.7583
-0.1925 0.5126 0.9896 1.5264 2.1071 2.5046
3.0395 3.5548 4.0485 4.5807 5.0324 5.5897
6.1340 6.6689 7.2824 7.8800 8.4953 9.0929
9.6652 10.2207 10.7650 11.2794 11.7161 12.1117
12.4886 12.8215 13.0936 13.3106 13.4864 13.6164
13.7174 13.7913 13.8343 13.8577 13.8315 13.7894
13.7108 13.5593 13.3901 13.1591 12.8907 12.5980
12.2370 11.8760 11.5094 11.1251 10.7734 10.4686
10.1768 9.9495 9.7681 9.5876 9.4642 9.3482
9.2323 9.1191 8.9741 8.8189 8.6141 8.3719
8.1680 7.9183 7.6284 7.3600 7.0514 6.7512
6.4622 6.1873 5.9413 5.6879 5.4644 5.3007
5.1605 5.0548 5.0024 4.9491 4.9295 4.9024
4.8406 4.7939 4.7060 4.5694 4.4086 4.2309
4.0410 3.8316 3.5978 3.3640 3.1236 2.8356
2.5232 2.1838 1.8303 1.4609 1.0587 0.6641
0.2723 -0.1177 -0.5077 -0.8752 -1.2343 -1.5579
-1.8282 -2.0938 -2.2864 -2.4501 -2.6147 -2.7250
-2.8195 -2.9074 -2.9850 -3.0635 -3.1477 -3.2365
-3.3338 -3.4582 -3.5779 -3.7126 -3.8631 -4.0015
-4.1699 -4.3588 -4.5888 -4.8525 -5.1359 -5.4548
-5.7634 -6.0730 -6.3788 -6.6387 -6.8716 -7.0643
-7.1681 -7.2158 -7.1896 -7.0783 -6.9128 -6.6715
-6.3975 -6.1141 -5.7971 -5.4660 -5.1827 -4.9143
-4.6421 -4.4298 -4.2531 -4.1250 -4.0025 -3.9024
-3.8725 -3.8435 -3.8753 -3.9445 -4.0417 -4.2372
-4.4916 -4.7927 -5.1443 -5.5203 -5.9177 -6.3227
-6.6949 -7.0437 -7.3327 -7.5496 -7.7310 -7.8695
-7.9826 -8.0546 -8.0976 -8.1126 -8.1201 -8.1042
-8.0294 -7.9433 -7.8377 -7.6834 -7.4907 -7.2887
-7.0792 -6.8492 -6.6098 -6.4022 -6.2095 -6.0225
-5.9074 -5.8336 -5.7999 -5.8420 -5.9261 -6.0505
-6.1974 -6.3704 -6.5406 -6.7033 -6.8436 -6.9446
-7.0203 -7.0530 -7.0587 -7.0278 -6.9913 -6.9520
-6.8959 -6.8342 -6.7435 -6.6425 -6.5134 -6.3554
-6.1899 -5.9972 -5.7747 -5.5371 -5.2818 -4.9994
-4.6796 -4.3354 -3.9539 -3.5545 -3.1477 -2.7082
-2.2799 -1.8572 -1.4541 -1.0651 -0.6826 -0.3730
-0.0906 0.1937 0.4004 0.5715 0.7239 0.8474
0.9558 1.0494 1.1831 1.2906 1.4057 1.5198
1.6161 1.7461 1.8751 2.0668 2.2399 2.4185
2.6373 2.8683 3.1423 3.4013 3.6613 3.9176
4.2019 4.4983 4.7807 5.0791 5.3980 5.7402
6.0741 6.3874 6.6932 7.0168 7.3235 7.6078
7.8865 8.1558 8.4214 8.6805 8.9171 9.1368
9.3603 9.5380 9.6839 9.8382 9.9691 10.0954
10.1964 10.2637 10.3404 10.3872 10.3862 10.3694
10.3049 10.2020 10.0898 9.9411 9.7653 9.5726
9.3678 9.1565 8.9526 8.7450 8.5299 8.3298
8.1249 7.9080 7.7069 7.5096 7.2973 7.0878
6.8896 6.6735 6.4884 6.3004 6.1040 5.9712
5.8412 5.7356 5.6748 5.6785 5.6897 5.7299
5.8394 5.9217 6.0217 6.1049 6.1835 6.2396
6.2546 6.2611 6.2200 6.1489 6.0488 5.8964
5.6944 5.4522 5.1660 4.8518 4.4684 4.0335
3.5818 3.0684 2.5269 1.9845 1.4412 0.9222
0.4106 -0.0916 -0.5302 -0.9426 -1.3494 -1.6992
-2.0414 -2.3772 -2.6792 -2.9888 -3.3086 -3.6425
-3.9960 -4.3485 -4.7226 -5.1079 -5.4913 -5.8878
-6.2638 -6.6360 -7.0082 -7.3411 -7.6450 -7.9275
-8.1940 -8.4110 -8.5943 -8.7738 -8.9281 -9.0310
-9.0759 -9.1142 -9.0852 -9.0160 -8.9188 -8.7645
-8.6195 -8.4474 -8.2398 -8.0247 -7.8078 -7.5441
-7.2420 -6.9465 -6.6014 -6.2152 -5.7850 -5.3230
-4.8470 -4.3354 -3.8015 -3.2590 -2.7185 -2.1929
-1.6739 -1.1670 -0.6798 -0.1954 0.2834 0.7576
1.2467 1.7199 2.1893 2.6934 3.1610 3.6211
4.0887 4.4927 4.8677 5.2146 5.5139 5.7916
6.0049 6.1797 6.3640 6.5014 6.5931 6.6735
6.7418 6.7951 6.8007 6.7661 6.6894 6.5538
6.3958 6.1751 5.8898 5.5868 5.2212 4.8078
4.3702 3.9026 3.4060 2.9047 2.4147 1.9041
1.3813 0.8455 0.3218 -0.2104 -0.7481 -1.2437
-1.7188 -2.1630 -2.5586 -2.8990 -3.1852 -3.4115
-3.5742 -3.6687 -3.7023 -3.6883 -3.5957 -3.4620
-3.3255 -3.1309 -2.8981 -2.6577 -2.4024 -2.1247
-1.8535 -1.6010 -1.3653 -1.1876 -1.0296 -0.9464
-0.9005 -0.8585 -0.9061 -0.9239 -0.9370 -0.9585
-0.9744 -1.0202 -1.0109 -1.0071 -1.0118 -1.0202
-1.0399 -1.0558 -1.1044 -1.1493 -1.2194 -1.3055
-1.3915 -1.4822 -1.5402 -1.5963 -1.6693 -1.7151
-1.7338 -1.7516 -1.7450 -1.7282 -1.6908 -1.6290
-1.5449 -1.4439 -1.3401 -1.1867 -1.0389 -0.9164
-0.7584 -0.6265 -0.5115 -0.4171 -0.3591 -0.2917
-0.2815 -0.2571 -0.2291 -0.2422 -0.2216 -0.2048
-0.1599 -0.0879 0.0094 0.1085 0.2226 0.3676
0.4723 0.5929 0.7183 0.8651 1.0100 1.1643
1.3682 1.5683 1.7918 2.0275 2.2847 2.5493
2.8093 3.0637 3.3106 3.5322 3.7118 3.8745
4.0026 4.1074 4.1709 4.1896 4.1784 4.1251
4.0512 3.9381 3.8015 3.6426 3.4452 3.2330
2.9870 2.7541 2.4960 2.1837 1.9022 1.6039
1.2906 0.9670 0.6070 0.2815 -0.0664 -0.4320
-0.7631 -1.1035 -1.4056 -1.6749 -1.9274 -2.1116
-2.2444 -2.3501 -2.4127 -2.4417 -2.4614 -2.4782
-2.4932 -2.4988 -2.5306 -2.5689 -2.6119 -2.6905
-2.7662 -2.8701 -2.9654 -3.0477 -3.1310 -3.1852
-3.2469 -3.2553 -3.2385 -3.2226 -3.1506 -3.0926
-3.0094 -2.9000 -2.8289 -2.7092 -2.5942 -2.5035
-2.3735 -2.2472 -2.1219 -2.0228 -1.9321 -1.8479
-1.7675 -1.6833 -1.6356 -1.5767 -1.5337 -1.4935
-1.4570 -1.4271 -1.3906 -1.3728 -1.3551 -1.3551
-1.3756 -1.4355 -1.4813 -1.5412 -1.6375 -1.7142
-1.8040 -1.8750 -1.9461 -2.0060 -2.0527 -2.1182
-2.1771 -2.2500 -2.3220 -2.4081 -2.5110 -2.6269
-2.7635 -2.8897 -2.9879 -3.0917 -3.2011 -3.2516
-3.2844 -3.2946 -3.2675 -3.2301 -3.1329 -3.0047
-2.8542 -2.6755 -2.4923 -2.2687 -2.0078 -1.7319
-1.4710 -1.2157 -0.9791 -0.8033 -0.6556 -0.5583
-0.5284 -0.5387 -0.5966 -0.6715 -0.7893 -0.9399
-1.0652 -1.2270 -1.3953 -1.5131 -1.6356 -1.7357
-1.8021 -1.8825 -1.9573 -2.0004 -2.0593 -2.1172
-2.1696 -2.2613 -2.3585 -2.4857 -2.6260 -2.7681
-2.9421 -3.1095 -3.2600 -3.4396 -3.6351 -3.7585
-3.9250 -4.1157 -4.2495 -4.3841 -4.5001 -4.6329
-4.7582 -4.8891 -4.9986 -5.0547 -5.1323 -5.2024
-5.2576 -5.2875 -5.3100 -5.3109 -5.2978 -5.2772
-5.2211 -5.1847 -5.1370 -5.0911 -5.0472 -5.0173
-5.0229 -5.0051 -5.0219 -5.0406 -5.0416 -5.0453
-4.9986 -4.9574 -4.9022 -4.7919 -4.6619 -4.4936
-4.3084 -4.1195 -3.9016 -3.6902 -3.4490 -3.1862
-2.9281 -2.6428 -2.3501 -2.0275 -1.7217 -1.4121
-1.0596 -0.7295 -0.4031 -0.0561 0.2936 0.6527
1.0203 1.4000 1.7824 2.1743 2.5830 2.9916
3.4284 3.8726 4.3009 4.7124 5.1547 5.5821
5.9767 6.4153 6.8249 7.2318 7.6404 8.0351
8.4204 8.7729 9.1274 9.4519 9.7315 9.9887
10.2215 10.3880 10.5414 10.6526 10.7275 10.8294
10.8668 10.9117 10.9323 10.9005 10.8892 10.8425
10.7967 10.7621 10.6760 10.5825 10.5526 10.4488
10.3029 10.2056 10.0588 9.9176 9.7708 9.5865
9.4229 9.2704 9.0928 8.8936 8.6654 8.4138
8.1492 7.8275 7.4758 7.1139 6.7183 6.3199
5.9057 5.4923 5.1192 4.7255 4.3504 4.0222
3.7052 3.4153 3.1207 2.8392 2.5699 2.3024
2.0452 1.7880 1.5225 1.2410 0.9847 0.7210
0.4423 0.1599 -0.1422 -0.4386 -0.7444 -1.0671
-1.3560 -1.6497 -1.9452 -2.1753 -2.4034 -2.6176
-2.7794 -2.9309 -3.0515 -3.1535 -3.2769 -3.3985
-3.5219 -3.6650 -3.8203 -3.9876 -4.1794 -4.3945
-4.6086 -4.8153 -5.0341 -5.2726 -5.4952 -5.6887
-5.8748 -6.0357 -6.1928 -6.3499 -6.4930 -6.6632
-6.8306 -7.0074 -7.2178 -7.4375 -7.6723 -7.9201
-8.1801 -8.4195 -8.6598 -8.8805 -9.0891 -9.2873
-9.4332 -9.5782 -9.7091 -9.8176 -9.9083 -9.9869
-10.0355 -10.0710 -10.0720 -10.0084 -9.9457 -9.8335
-9.7091 -9.5520 -9.3593 -9.2013 -9.0077 -8.8123
-8.6327 -8.4831 -8.3447 -8.2194 -8.1371 -8.0576
-7.9874 -7.9304 -7.8846 -7.8163 -7.7630 -7.7181
-7.6255 -7.5675 -7.5124 -7.4366 -7.3880 -7.2851
-7.1813 -7.0943 -6.9541 -6.8016 -6.6165 -6.3948
-6.1779 -5.9590 -5.7215 -5.4765 -5.2287 -4.9827
-4.7349 -4.4665 -4.2130 -3.9381 -3.6463 -3.3499
-3.0216 -2.6924 -2.3427 -1.9929 -1.6301 -1.2625
-0.9100 -0.5322 -0.1815 0.1627 0.4993 0.8313
1.1689 1.4757 1.7861 2.0948 2.4052 2.6942
3.0028 3.3217 3.6191 3.9352 4.2101 4.4972
4.7731 5.0135 5.2725 5.4876 5.6831 5.8598
6.0141 6.1628 6.2975 6.4312 6.5705 6.7174
6.8586 7.0054 7.1653 7.3421 7.5319 7.7049
7.8929 8.0977 8.2866 8.4680 8.6214 8.7963
8.9515 9.0637 9.1928 9.2798 9.3499 9.4462
9.5061 9.5631 9.6220 9.6239 9.6529 9.6697
9.6398 9.6333 9.6080 9.5743 9.5482 9.5248
9.4780 9.4294 9.3938 9.3144 9.2171 9.1198
9.0291 8.9085 8.7364 8.5718 8.3988 8.2062
7.9920 7.7685 7.5515 7.3318 7.0942 6.8520
6.6472 6.3985 6.1562 5.9758 5.7326 5.4810
5.2342 4.9658 4.6964 4.3934 4.1101 3.8099
3.4891 3.1627 2.8214 2.4716 2.1022 1.7581
1.3990 1.0660 0.7443 0.4198 0.1271 -0.1665
-0.4331 -0.7155 -0.9783 -1.2467 -1.5066 -1.7358
-2.0023 -2.2221 -2.4287 -2.6120 -2.7635 -2.8823
-2.9412 -2.9824 -2.9927 -2.9861 -2.9365 -2.8954
-2.8739 -2.8430 -2.8271 -2.8066 -2.8187 -2.8355
-2.8683 -2.9384 -3.0048 -3.0834 -3.1395 -3.2227
-3.3181 -3.3761 -3.4556 -3.5154 -3.5949 -3.6922
-3.7352 -3.7857 -3.8409 -3.8886 -3.9568 -4.0326
-4.1130 -4.2243 -4.3384 -4.4403 -4.5600 -4.6825
-4.7994 -4.9154 -5.0248 -5.1380 -5.2352 -5.3157
-5.3989 -5.4531 -5.4990 -5.5205 -5.5064 -5.4746
-5.3989 -5.2960 -5.1567 -4.9799 -4.7873 -4.5787
-4.3169 -4.0447 -3.7848 -3.4967 -3.2134 -2.9244
-2.6027 -2.2801 -1.9855 -1.6946 -1.3898 -1.0755
-0.7763 -0.4854 -0.1759 0.1439 0.4423 0.7050
0.9641 1.2241 1.4653 1.6832 1.9049 2.1200
2.3154 2.4884 2.6427 2.7970 2.9354 3.0271
3.1028 3.1749 3.2020 3.2291 3.2347 3.2141
3.1945 3.1590 3.1328 3.1066 3.0720 3.0112
2.9476 2.8690 2.7484 2.6006 2.4108 2.1892
1.9217 1.6168 1.2746 0.8818 0.4684 0.0205
-0.4406 -0.8960 -1.3458 -1.7910 -2.2043 -2.5877
-2.9852 -3.3424 -3.6997 -4.0663 -4.4319 -4.7985
-5.1492 -5.5149 -5.8338 -6.1377 -6.4295 -6.6651
-6.8924 -7.0860 -7.2431 -7.3852 -7.5134 -7.6293
-7.7154 -7.7892 -7.8407 -7.8940 -7.9117 -7.8734
-7.8238 -7.7425 -7.6377 -7.4881 -7.3188 -7.1402
-6.9364 -6.6960 -6.4790 -6.2864 -6.0685 -5.8964
-5.7356 -5.5785 -5.4326 -5.2867 -5.1492 -5.0089
-4.8640 -4.7013 -4.5675 -4.4123 -4.2374 -4.0653
-3.8811 -3.7249 -3.5407 -3.3424 -3.1582 -2.9796
-2.8141 -2.6280 -2.4652 -2.3334 -2.1735 -2.0220
-1.9228 -1.8265 -1.7293 -1.6638 -1.5815 -1.4945
-1.4291 -1.3318 -1.2074 -1.1083 -0.9727 -0.7960
-0.6613 -0.5070 -0.3330 -0.1956 -0.0721 0.0214
0.1299 0.2299 0.3020 0.3880 0.4609 0.5376
0.6162 0.6891 0.7789 0.9042 1.0323 1.1670
1.3222 1.4793 1.6383 1.7898 1.9572 2.1199
2.2499 2.4183 2.6296 2.8120 3.0289 3.2749
3.5237 3.8145 4.1194 4.4532 4.7908 5.1396
5.4885 5.8364 6.1870 6.4947 6.7977 7.0568
7.3224 7.5646 7.7432 7.9527 8.1238 8.3062
8.4932 8.6475 8.8327 9.0122 9.1778 9.3470
9.5060 9.6500 9.7884 9.9119 10.0493 10.1747
10.2598 10.3739 10.4627 10.5338 10.6217 10.6993
10.7620 10.8022 10.8545 10.9097 10.9471 10.9761
11.0247 11.0565 11.0696 11.0893 11.0883 11.0930
11.0790 11.0378 10.9948 10.9312 10.8508 10.7657
10.6647 10.5366 10.3897 10.2467 10.0718 9.8763
9.7099 9.5369 9.3601 9.1806 9.0216 8.8589
8.6737 8.4904 8.2996 8.0705 7.7974 7.4991
7.1568 6.7986 6.3984 5.9673 5.5305 5.0611
4.5897 4.0838 3.5629 3.0495 2.5286 1.9965
1.4784 0.9771 0.4796 0.0045 -0.4733 -0.9110
-1.3318 -1.7368 -2.0931 -2.4456 -2.7561 -3.0236
-3.2967 -3.5276 -3.7203 -3.9232 -4.0888 -4.2440
-4.3946 -4.5227 -4.6592 -4.7845 -4.9024 -5.0370
-5.1857 -5.3279 -5.4569 -5.5972 -5.7534 -5.9208
-6.1041 -6.2818 -6.4735 -6.6867 -6.9261 -7.1805
-7.4208 -7.6920 -7.9155 -8.1353 -8.4000 -8.5655
-8.7404 -8.9059 -8.9770 -9.0555 -9.1032 -9.1004
-9.0864 -9.0518 -9.0153 -8.9957 -8.9526 -8.9180
-8.9096 -8.8769 -8.8470 -8.7937 -8.7123 -8.6478
-8.5664 -8.4233 -8.2457 -8.0820 -7.9155 -7.7332
-7.5349 -7.3423 -7.1449 -6.9364 -6.7409 -6.5212
-6.3098 -6.0919 -5.8394 -5.6206 -5.3690 -5.0960
-4.8509 -4.5816 -4.3113 -4.0607 -3.8279 -3.5997
-3.4023 -3.2265 -3.0788 -2.9619 -2.8338 -2.7533
-2.6832 -2.6131 -2.5850 -2.5336 -2.4849 -2.4457
-2.3970 -2.3587 -2.3138 -2.2726 -2.2427 -2.2184
-2.1847 -2.1501 -2.1436 -2.1240 -2.0800 -2.0155
-1.9304 -1.8340 -1.6919 -1.5348 -1.3730 -1.1654
-0.9699 -0.7801 -0.5706 -0.3583 -0.1404 0.0896
0.3328 0.5694 0.8293 1.0781 1.3147 1.5457
1.7786 2.0077 2.1704 2.3471 2.5164 2.6296
2.7549 2.8550 2.9232 2.9943 3.0719 3.1617
3.2328 3.2992 3.3599 3.4161 3.4890 3.5367
3.5554 3.5713 3.5788 3.5750 3.5666 3.5750
3.5806 3.5816 3.6162 3.6527 3.7041 3.7490
3.7995 3.8565 3.8958 3.9725 4.0015 4.0632
4.1408 4.1773 4.2689 4.3269 4.4139 4.5214
4.5972 4.7010 4.8048 4.8712 4.9226 4.9806
4.9946 5.0208 5.0479 5.0320 5.0161 4.9872
4.9376 4.8908 4.8413 4.7833 4.7384 4.6655
4.6075 4.5719 4.4971 4.4232 4.3391 4.2381
4.1352 4.0118 3.8977 3.7929 3.6629 3.5152
3.3899 3.2730 3.1411 3.0167 2.8849 2.7577
2.6286 2.5108 2.4089 2.3041 2.2312 2.1498
2.0928 2.0544 2.0114 1.9964 1.9861 1.9731
1.9674 1.9805 1.9815 1.9992 2.0395 2.0694
2.1096 2.1676 2.2256 2.2882 2.3714 2.4687
2.5575 2.6389 2.7249 2.8138 2.8858 2.9447
3.0064 3.0335 3.0588 3.0364 2.9849 2.9494
2.8643 2.7745 2.6604 2.5510 2.4612 2.3350
2.2003 2.0806 1.9609 1.8262 1.6972 1.5429
1.4035 1.3081 1.1875 1.0949 1.0472 0.9715
0.9228 0.9275 0.9144 0.9041 0.8967 0.8985
0.8976 0.8733 0.8836 0.8789 0.8639 0.8555
0.8237 0.7779 0.7190 0.6385 0.5216 0.3963
0.2570 0.0952 -0.0881 -0.2892 -0.4837 -0.6782
-0.8933 -1.0962 -1.2795 -1.4918 -1.6704 -1.8416
-2.0071 -2.1193 -2.2512 -2.3540 -2.4438 -2.5617
-2.6692 -2.7711 -2.8815 -3.0349 -3.1901 -3.3519
-3.5417 -3.7372 -3.9270 -4.1262 -4.3610 -4.5742
-4.7827 -5.0081 -5.2157 -5.4271 -5.6356 -5.8245
-5.9685 -6.0985 -6.2248 -6.3099 -6.3482 -6.3669
-6.3725 -6.3333 -6.2725 -6.1883 -6.0817 -5.9470
-5.7600 -5.5767 -5.3756 -5.1549 -4.9604 -4.7369
-4.5181 -4.3207 -4.1244 -3.9551 -3.7896 -3.6278
-3.4772 -3.3192 -3.1574 -2.9993 -2.8207 -2.6253
-2.4074 -2.1736 -1.9257 -1.6443 -1.3693 -1.0822
-0.7867 -0.5005 -0.2078 0.0662 0.3271 0.5712
0.8153 1.0397 1.2155 1.3801 1.5475 1.6906
1.8262 1.9777 2.0750 2.1732 2.2835 2.3462
2.4210 2.4930 2.5594 2.6314 2.6969 2.7763
2.8540 2.9250 2.9999 3.0513 3.1037 3.1532
3.1551 3.1336 3.0756 3.0027 2.9082 2.7735
2.6379 2.4687 2.2751 2.0787 1.8673 1.6532
1.4157 1.1697 0.9181 0.6675 0.4244 0.1513
-0.0947 -0.3453 -0.5997 -0.8297 -1.0850 -1.3188
-1.5489 -1.7948 -2.0249 -2.2765 -2.5383 -2.7964
-3.0620 -3.3173 -3.5792 -3.8485 -4.0954 -4.3367
-4.5892 -4.8258 -5.0530 -5.2653 -5.4869 -5.7048
-5.8947 -6.0985 -6.2678 -6.4174 -6.5446 -6.6344
-6.7083 -6.7504 -6.7803 -6.7962 -6.7896 -6.7681
-6.7261 -6.6662 -6.6026 -6.5437 -6.4932 -6.4296
-6.3688 -6.3548 -6.3221 -6.2940 -6.3034 -6.3193
-6.3221 -6.3249 -6.3623 -6.3922 -6.4146 -6.4249
-6.4249 -6.4446 -6.4249 -6.3772 -6.3174 -6.2444
-6.1565 -6.0191 -5.8535 -5.6815 -5.4963 -5.2803
-5.0680 -4.8510 -4.5639 -4.2843 -4.0122 -3.6877
-3.3622 -3.0405 -2.7104 -2.3868 -2.0520 -1.7163
-1.4301 -1.1355 -0.8522 -0.6249 -0.3883 -0.1760
-0.0030 0.1737 0.3364 0.4702 0.5936 0.6983
0.8106 0.9162 0.9929 1.0902 1.1566 1.2127
1.2969 1.3586 1.3951 1.4371 1.4774 1.4970
1.5148 1.5363 1.5681 1.5971 1.6410 1.7018
1.7766 1.9094 2.0544 2.2161 2.4051 2.6117
2.8072 2.9923 3.1925 3.3561 3.5086 3.6451
3.7405 3.8116 3.8770 3.9154 3.9219 3.9406
3.9191 3.8985 3.8546 3.8069 3.8059 3.7704
3.7611 3.7517 3.7293 3.7152 3.6535 3.5787
3.5039 3.3776 3.2243 3.0868 2.8932 2.6837
2.4920 2.2732 2.0609 1.8421 1.6560 1.4736
1.3062 1.2043 1.1079 1.0228 0.9405 0.8844
0.8480 0.8180 0.7769 0.7067 0.6619 0.6011
0.5347 0.4907 0.4037 0.3308 0.2719 0.1849
0.1269 0.0774 0.0390 0.0091 -0.0190 -0.0133
-0.0105 0.0016 0.0409 0.0792 0.1092 0.1765
0.2317 0.2466 0.2812 0.2971 0.3037 0.3252
0.3439 0.3570 0.3663 0.4065 0.4636 0.5113
0.5758 0.6581 0.7283 0.7984 0.8835 0.9639
1.0434 1.1098 1.1725 1.2538 1.3240 1.3932
1.4670 1.5166 1.6129 1.6999 1.7373 1.8299
1.9309 2.0020 2.0833 2.1853 2.2975 2.4050
2.5201 2.6463 2.7913 2.9615 3.1195 3.2869
3.4730 3.6282 3.7863 3.9331 4.0771 4.2015
4.2969 4.4250 4.5213 4.6093 4.7046 4.7841
4.8543 4.9132 4.9880 5.0469 5.1086 5.1853
5.2564 5.2947 5.3537 5.3854 5.3742 5.4088
5.4004 5.3677 5.3144 5.2573 5.2096 5.1395
5.0927 5.0460 5.0114 4.9656 4.9207 4.8767
4.8169 4.7617 4.6691 4.6018 4.5428 4.4381
4.3231 4.2006 4.0818 3.9518 3.8097 3.6488
3.4936 3.3327 3.1476 2.9745 2.7969 2.6463
2.4920 2.3180 2.1871 2.0581 1.9215 1.8046
1.6849 1.5839 1.4848 1.3716 1.2921 1.2061
1.0911 0.9891 0.8713 0.7413 0.6039 0.4617
0.3149 0.1381 -0.0218 -0.1724 -0.3360 -0.4847
-0.6306 -0.7615 -0.8868 -0.9916 -1.0898 -1.2057
-1.2833 -1.3741 -1.4601 -1.5349 -1.6266 -1.6827
-1.7837 -1.8753 -1.9557 -2.0932 -2.2129 -2.3401
-2.4851 -2.6403 -2.8152 -2.9807 -3.1649 -3.3492
-3.5007 -3.6625 -3.8112 -3.9140 -4.0347 -4.1431
-4.1880 -4.2264 -4.2685 -4.2872 -4.2909 -4.2797
-4.2498 -4.2245 -4.1843 -4.1301 -4.0721 -3.9916
-3.9449 -3.8822 -3.8065 -3.8102 -3.8177 -3.8420
-3.8860 -3.9514 -4.0393 -4.1310 -4.2610 -4.3704
-4.5032 -4.6481 -4.7697 -4.9268 -5.0774 -5.2308
-5.3963 -5.5469 -5.7086 -5.8667 -6.0154 -6.1641
-6.2782 -6.3754 -6.4820 -6.5756 -6.6373 -6.6906
-6.7430 -6.7897 -6.8243 -6.8150 -6.8150 -6.8225
-6.7916 -6.7383 -6.6812 -6.6279 -6.5812 -6.5344
-6.4727 -6.4119 -6.3605 -6.2959 -6.1940 -6.0743
-5.9415 -5.7666 -5.5899 -5.3972 -5.1541 -4.8960
-4.6107 -4.3124 -3.9870 -3.6185 -3.2613 -2.8853
-2.4757 -2.0568 -1.6397 -1.2160 -0.7849 -0.3678
0.0511 0.4561 0.8479 1.2575 1.6653 2.0225
2.3685 2.7258 3.0437 3.3533 3.6422 3.9116
4.1912 4.4343 4.6784 4.9281 5.1460 5.3480
5.5500 5.7539 5.9250 6.0868 6.2523 6.3795
6.4945 6.6086 6.7237 6.8312 6.9041 6.9921
7.0800 7.1202 7.1417 7.1538 7.1342 7.1005
7.0463 6.9687 6.8948 6.7872 6.6806 6.5628
6.4113 6.2776 6.1298 5.9633 5.8025 5.6463
5.4649 5.2629 5.0805 4.9113 4.7485 4.5896
4.4558 4.3258 4.1977 4.1210 4.0350 3.9490
3.9116 3.8713 3.8321 3.8218 3.8049 3.8106
3.8358 3.8657 3.9331 3.9789 4.0490 4.1482
4.2230 4.3034 4.3717 4.4624 4.5344 4.5765
4.6279 4.6962 4.7467 4.7663 4.8149 4.8449
4.8832 4.9365 4.9683 5.0235 5.0787 5.1189
5.1666 5.2227 5.2610 5.3087 5.3592 5.3480
5.3601 5.3601 5.3134 5.3068 5.2704 5.2292
5.1993 5.1544 5.1133 5.0656 5.0179 4.9561
4.8869 4.8075 4.7177 4.6279 4.5260 4.4100
4.2725 4.1435 4.0443 3.9162 3.8068 3.6955
3.5730 3.4664 3.3430 3.2298 3.0970 2.9661
2.7959 2.6294 2.4807 2.2899 2.1001 1.8766
1.6783 1.4529 1.2135 0.9825 0.6786 0.4205
0.1558 -0.1565 -0.4314 -0.6980 -0.9767 -1.2600
-1.5181 -1.7744 -2.0147 -2.2364 -2.4664 -2.6815
-2.8854 -3.0705 -3.2679 -3.4605 -3.6335 -3.8206
-3.9992 -4.1638 -4.3256 -4.4761 -4.6183 -4.7623
-4.9082 -5.0681 -5.2252 -5.3496 -5.4842 -5.6414
-5.7947 -5.9518 -6.1258 -6.3175 -6.4952 -6.6663
-6.8767 -7.0797 -7.2695 -7.4790 -7.6754 -7.8699
-8.0448 -8.1813 -8.3160 -8.4497 -8.5573 -8.6283
-8.7106 -8.7939 -8.8444 -8.8846 -8.9285 -8.9687
-8.9772 -8.9931 -9.0071 -9.0080 -9.0024 -8.9846
-8.9631 -8.9313 -8.9098 -8.8481 -8.8013 -8.7518
-8.6751 -8.6227 -8.5348 -8.4637 -8.3721 -8.2655
-8.1682 -8.0251 -7.8886 -7.7250 -7.5454 -7.3817
-7.2115 -7.0245 -6.8141 -6.6158 -6.4101 -6.1856
-5.9444 -5.6891 -5.4459 -5.1691 -4.8867 -4.6360
-4.3807 -4.1329 -3.8832 -3.6457 -3.4465 -3.2380
-3.0369 -2.8470 -2.6404 -2.4468 -2.2579 -2.0531
-1.8520 -1.6519 -1.4256 -1.2095 -0.9776 -0.7176
-0.4792 -0.2257 0.0174 0.2774 0.5551 0.8030
1.0517 1.2939 1.5455 1.7830 2.0000 2.2020
2.3834 2.5695 2.7360 2.9071 3.0680 3.2092
3.3719 3.5094 3.6263 3.7432 3.8601 3.9555
4.0293 4.1107 4.1668 4.2276 4.2491 4.2734
4.3380 4.3539 4.3726 4.3679 4.3436 4.3080
4.2622 4.2182 4.1369 4.0593 3.9760 3.8881
3.8030 3.7198 3.6450 3.5646 3.5028 3.4486
3.3869 3.3289 3.2784 3.2541 3.2176 3.1456
3.0876 3.0193 2.9595 2.8950 2.7949 2.7435
2.6874 2.6041 2.5602 2.5321 2.5125 2.4919
2.4844 2.4863 2.4797 2.4816 2.4620 2.4620
2.4601 2.4133 2.3675 2.3095 2.2777 2.2123
2.1216 2.0533 1.9401 1.8148 1.6904 1.5548
1.4005 1.2500 1.0816 0.9040 0.7235 0.5112
0.3269 0.1081 -0.1042 -0.2893 -0.4960 -0.6840
-0.8626 -0.9935 -1.1123 -1.2077 -1.2573 -1.2947
-1.3012 -1.2909 -1.2732 -1.2442 -1.2021 -1.1441
-1.0927 -1.0730 -1.0646 -1.0553 -1.0543 -1.0665
-1.0973 -1.1385 -1.1974 -1.2573 -1.2928 -1.3564
-1.4256 -1.4611 -1.5257 -1.5528 -1.5687 -1.5902
-1.5621 -1.5547 -1.5238 -1.4677 -1.4219 -1.3592
-1.2853 -1.2339 -1.1647 -1.0899 -1.0216 -0.9543
-0.9412 -0.9103 -0.8832 -0.8692 -0.8776 -0.9019
-0.8841 -0.9084 -0.9356 -0.9655 -0.9917 -1.0151
-1.0590 -1.0665 -1.1002 -1.1161 -1.1207 -1.1404
-1.1432 -1.1479 -1.1404 -1.1329 -1.1170 -1.1076
-1.0880 -1.0618 -1.0656 -1.0590 -1.0618 -1.0852
-1.0936 -1.1273 -1.1843 -1.2302 -1.2844 -1.3059
-1.3583 -1.4078 -1.4069 -1.4368 -1.4340 -1.4172
-1.4022 -1.3396 -1.2835 -1.2115 -1.1170 -1.0169
-0.8823 -0.7476 -0.6083 -0.4670 -0.3221 -0.1538
0.0024 0.1464 0.2867 0.4261 0.5448 0.6439
0.7674 0.8581 0.9301 1.0255 1.0947 1.1882
1.2855 1.3566 1.4445 1.5361 1.6352 1.7194
1.7765 1.8307 1.8859 1.9177 1.9420 1.9597
1.9523 1.9504 1.9373 1.8980 1.8578 1.8326
1.7867 1.7269 1.7026 1.6792 1.6549 1.6165
1.6034 1.6203 1.6053 1.6231 1.6306 1.6156
1.6212 1.6175 1.6081 1.5847 1.5885 1.5707
1.5324 1.5324 1.5080 1.4819 1.4557 1.4220
1.3921 1.3444 1.2986 1.2686 1.2088 1.1171
1.0788 1.0348 0.9469 0.8805 0.8235 0.7702
0.7197 0.6645 0.5953 0.5514 0.5065 0.4625
0.4457 0.3933 0.3774 0.3765 0.3531 0.3643
0.3671 0.3671 0.3924 0.4204 0.4457 0.4700
0.4850 0.5083 0.5205 0.5167 0.5270 0.5214
0.4999 0.4728 0.4391 0.4064 0.3671 0.3437
0.3409 0.3372 0.3447 0.3493 0.3493 0.3447
0.3288 0.3091 0.2605 0.2044 0.1286 0.0520
-0.0388 -0.1622 -0.2548 -0.3707 -0.4774 -0.5671
-0.6644 -0.7458 -0.8271 -0.8739 -0.9160 -0.9506
-0.9711 -0.9870 -0.9842 -0.9842 -0.9655 -0.9272
-0.8916 -0.8309 -0.7589 -0.6644 -0.5756 -0.4979
-0.3913 -0.2959 -0.1968 -0.1201 -0.0519 0.0192
0.0772 0.1305 0.1520 0.1782 0.1857 0.1819
0.1632 0.1221 0.0894 0.0361 -0.0219 -0.0855
-0.1659 -0.2454 -0.3146 -0.3941 -0.4858 -0.5858
-0.6971 -0.8037 -0.9412 -1.0796 -1.2077 -1.3620
-1.5192 -1.6669 -1.8203 -1.9615 -2.1046 -2.2552
-2.3879 -2.5217 -2.6264 -2.7443 -2.8677 -2.9519
-3.0575 -3.1623 -3.2502 -3.3661 -3.4830 -3.5775
-3.6860 -3.7617 -3.8319 -3.9076 -3.9450 -3.9750
-3.9955 -4.0039 -3.9918 -3.9778 -3.9366 -3.9020
-3.8880 -3.8384 -3.8048 -3.7673 -3.7112 -3.6701
-3.6383 -3.5934 -3.5298 -3.5008 -3.4559 -3.4204
-3.3727 -3.2736 -3.2044 -3.1006 -2.9762 -2.8322
-2.6526 -2.4824 -2.2898 -2.0887 -1.8708 -1.6473
-1.4191 -1.1825 -0.9244 -0.6579 -0.4016 -0.1276
0.1688 0.4915 0.8150 1.1554 1.5202 1.8840
2.2487 2.6349 3.0202 3.3849 3.7422 4.1106
4.4585 4.7690 5.0626 5.3264 5.5863 5.8229
6.0259 6.2204 6.4028 6.5767 6.7132 6.8273
6.9536 7.0621 7.1462 7.2351 7.3061 7.3632
7.4193 7.4679 7.5044 7.5325 7.5455 7.5278
7.4932 7.4586 7.3912 7.2771 7.1818 7.0508
6.8928 6.7553 6.5767 6.3962 6.1989 5.9660
5.7322 5.4788 5.2066 4.9177 4.6147 4.3023
3.9460 3.5860 3.2343 2.8537 2.4825 2.0897
1.7081 1.3434 0.9534 0.5794 0.2174 -0.1417
-0.5026 -0.8515 -1.1825 -1.4958 -1.8128 -2.1299
-2.4057 -2.6938 -2.9612 -3.2063 -3.4494 -3.6645
-3.8974 -4.1265 -4.3425 -4.5464 -4.7568 -4.9766
-5.1673 -5.3693 -5.5489 -5.7200 -5.9033 -6.0436
-6.1988 -6.3550 -6.4888 -6.6543 -6.8076 -6.9479
-7.1078 -7.2565 -7.3921 -7.5455 -7.6774 -7.7887
-7.9112 -7.9888 -8.0505 -8.1019 -8.1328 -8.1478
-8.1160 -8.0767 -8.0384 -7.9804 -7.8812 -7.7653
-7.6633 -7.5371 -7.3753 -7.1958 -7.0134 -6.8301
-6.6094 -6.3728 -6.1540 -5.9061 -5.6639 -5.4180
-5.1645 -4.9289 -4.6661 -4.4070 -4.1377 -3.8637
-3.5831 -3.3007 -3.0351 -2.7377 -2.4628 -2.1991
-1.9120 -1.6286 -1.3396 -1.0329 -0.7187 -0.4157
-0.1005 0.2230 0.5494 0.8795 1.1956 1.5211
1.8465 2.1448 2.4656 2.7714 3.0632 3.3568
3.6028 3.8590 4.1031 4.3089 4.4809 4.6736
4.8569 4.9719 5.1131 5.2244 5.3170 5.4133
5.4582 5.5143 5.5667 5.6218 5.6752 5.6892
5.7163 5.7331 5.7172 5.6995 5.6770 5.6293
5.5629 5.4900 5.3965 5.2908 5.1692 5.0495
4.9289 4.8185 4.7007 4.5726 4.4809 4.3818
4.2621 4.1573 4.0563 3.9497 3.8459 3.7328
3.6327 3.5167 3.3933 3.3026 3.1773 3.0613
2.9500 2.8284 2.7069 2.5479 2.4123 2.2860
2.1056 1.9223 1.7605 1.5706 1.3817 1.1863
0.9843 0.7926 0.5765 0.3829 0.1800 -0.0276
-0.1978 -0.4213 -0.6112 -0.7729 -0.9647 -1.1208
-1.2892 -1.4369 -1.5800 -1.7231 -1.8306 -1.9569
-2.0972 -2.2234 -2.3310 -2.4413 -2.5311 -2.6293
-2.7424 -2.8332 -2.9229 -3.0090 -3.0913 -3.1577
-3.1895 -3.2287 -3.2755 -3.2727 -3.2680 -3.2624
-3.2128 -3.1595 -3.0913 -3.0043 -2.9342 -2.8219
-2.7013 -2.6134 -2.4750 -2.3656 -2.2543 -2.1140
-2.0298 -1.9008 -1.7942 -1.7222 -1.5922 -1.5127
-1.4547 -1.3696 -1.3144 -1.2611 -1.1751 -1.0919
-1.0320 -0.9245 -0.8066 -0.7150 -0.5934 -0.4643
-0.3222 -0.1903 -0.0744 0.0753 0.2099 0.3390
0.4540 0.5700 0.7065 0.7991 0.9001 0.9927
1.0581 1.1161 1.1498 1.1853 1.2199 1.2564
1.2742 1.2788 1.3106 1.3499 1.4060 1.4425
1.4790 1.5622 1.6192 1.6894 1.7595 1.8268
1.8960 1.9391 2.0158 2.0765 2.1542 2.2149
2.2673 2.3777 2.4450 2.5273 2.6283 2.7059
2.7966 2.8742 2.9650 3.0575 3.1080 3.1819
3.2380 3.3044 3.3830 3.4082 3.4793 3.5457
3.6215 3.7075 3.7917 3.9123 4.0021 4.1265
4.2564 4.3986 4.5557 4.6791 4.8260 4.9681
5.0766 5.1963 5.3029 5.3590 5.4310 5.4890
5.5161 5.5451 5.5507 5.5395 5.5208 5.5012
5.4853 5.4348 5.3927 5.3749 5.2936 5.2206
5.1589 5.0691 4.9868 4.8643 4.7287 4.6212
4.4912 4.3228 4.1648 4.0142 3.8459 3.6673
3.4709 3.2810 3.0968 2.9051 2.7022 2.5020
2.3159 2.1046 1.8979 1.7193 1.5294 1.3340
1.1647 1.0104 0.8411 0.6859 0.5353 0.3923
0.2454 0.0893 -0.0398 -0.1978 -0.3559 -0.4896
-0.6271 -0.7618 -0.8805 -0.9946 -1.1096 -1.2069
-1.3042 -1.3977 -1.4996 -1.5997 -1.6792 -1.7736
-1.8653 -1.9551 -2.0561 -2.1589 -2.2749 -2.3955
-2.4881 -2.6144 -2.7425 -2.8510 -2.9931 -3.0969
-3.2110 -3.3232 -3.3850 -3.4831 -3.5823 -3.6440
-3.7104 -3.7983 -3.8900 -3.9694 -4.0536 -4.1537
-4.2519 -4.3529 -4.4333 -4.5062 -4.6007 -4.6746
-4.7494 -4.8279 -4.8878 -4.9710 -5.0599 -5.1281
-5.2207 -5.2993 -5.3816 -5.5088 -5.6107 -5.7042
-5.7902 -5.8688 -5.9735 -6.0297 -6.0699 -6.1194
-6.1260 -6.1297 -6.1241 -6.0951 -6.0605 -6.0119
-5.9520 -5.8894 -5.8202 -5.7519 -5.6921 -5.6359
-5.6051 -5.5378 -5.4620 -5.4442 -5.4199 -5.3741
-5.3255 -5.2815 -5.2366 -5.1468 -5.0664 -4.9963
-4.8738 -4.7616 -4.6353 -4.4866 -4.3463 -4.1958
-4.0162 -3.8544 -3.7132 -3.5299 -3.3719 -3.2063
-3.0446 -2.8884 -2.7051 -2.5368 -2.3413 -2.1617
-2.0000 -1.8092 -1.6296 -1.4538 -1.2686 -1.0844
-0.9049 -0.7328 -0.5579 -0.3980 -0.2717 -0.1193
0.0443 0.1874 0.3277 0.4596 0.6223 0.7729
0.9197 1.0787 1.2115 1.3732 1.5173 1.6342
1.7800 1.9166 2.0382 2.1644 2.3075 2.4655
2.5965 2.7236 2.8910 3.0407 3.1800 3.3240
3.4568 3.6036 3.7215 3.8262 3.9618 4.0647
4.1517 4.2480 4.3265 4.3939 4.4603 4.5267
4.5790 4.6211 4.6679 4.7287 4.7689 4.8138
4.8867 4.9279 4.9756 5.0307 5.0700 5.1074
5.1196 5.1121 5.1121 5.0925 5.0597 5.0429
4.9915 4.9447 4.9092 4.8587 4.8241 4.7736
4.7333 4.6894 4.6146 4.5772 4.5510 4.4977
4.4444 4.3854 4.3200 4.2564 4.1825 4.1133
4.0666 4.0179 3.9450 3.8767 3.8318 3.7738
3.7018 3.6326 3.5868 3.5344 3.4559 3.3783
3.3025 3.2099 3.0949 2.9789 2.8592 2.7470
2.5843 2.4403 2.3037 2.1195 1.9811 1.8202
1.6725 1.5593 1.4462 1.3311 1.2068 1.0945
0.9982 0.9066 0.8140 0.7504 0.6690 0.5830
0.5362 0.4895 0.4521 0.4315 0.4044 0.4100
0.4277 0.4277 0.4689 0.5026 0.5175 0.5390
0.5671 0.5998 0.5961 0.5933 0.5764 0.5503
0.5474 0.5072 0.4652 0.4483 0.4390 0.4296
0.4231 0.4343 0.4277 0.4464 0.4726 0.4708
0.4810 0.4960 0.5138 0.5156 0.5156 0.5072
0.4867 0.4839 0.4782 0.4343 0.3838 0.3398
0.2734 0.1958 0.0976 0.0153 -0.0614 -0.1839
-0.3054 -0.4046 -0.5318 -0.6814 -0.7917 -0.9180
-1.0470 -1.1490 -1.2921 -1.4314 -1.5502 -1.6755
-1.7952 -1.9018 -2.0187 -2.1365 -2.2319 -2.3189
-2.3965 -2.4882 -2.5592 -2.6163 -2.6817 -2.7388
-2.7986 -2.8398 -2.8800 -2.9202 -2.9539 -2.9689
-3.0016 -3.0540 -3.0605 -3.0932 -3.1260 -3.1400
-3.1718 -3.1755 -3.1802 -3.1718 -3.1652 -3.1793
-3.1709 -3.1774 -3.1905 -3.1662 -3.1662 -3.1811
-3.1849 -3.2101 -3.2344 -3.2597 -3.2831 -3.2934
-3.2999 -3.3336 -3.3570 -3.3532 -3.3635 -3.3504
-3.3252 -3.3196 -3.2765 -3.2335 -3.2148 -3.1512
-3.0904 -3.0306 -2.9361 -2.8529 -2.7547 -2.6574
-2.5686 -2.4311 -2.2899 -2.1627 -2.0066 -1.8410
-1.6727 -1.4969 -1.3089 -1.1135 -0.9040 -0.6702
-0.4616 -0.2409 0.0303 0.2753 0.5091 0.7691
1.0085 1.2535 1.5060 1.7108 1.9315 2.1494
2.3430 2.5291 2.6909 2.8424 2.9611 3.0743
3.2005 3.3118 3.3773 3.4792 3.6027 3.6504
3.7364 3.8149 3.8542 3.9122 3.9543 3.9636
3.9590 3.9693 3.9590 3.9384 3.9225 3.8972
3.8402 3.7813 3.7448 3.7139 3.6850 3.6560
3.6251 3.5933 3.5774 3.5606 3.5419 3.5063
3.4689 3.4409 3.3950 3.3614 3.3258 3.2613
3.2099 3.1556 3.0995 3.0602 3.0247 2.9836
2.9312 2.9116 2.8639 2.8040 2.7722 2.7283
2.6768 2.6151 2.5730 2.5038 2.4402 2.3916
2.3233 2.2728 2.2074 2.1428 2.0718 1.9951
1.9109 1.8043 1.7033 1.5920 1.4573 1.3264
1.1684 0.9841 0.8055 0.6138 0.4184 0.2089
-0.0156 -0.2344 -0.4411 -0.6487 -0.8619 -1.0443
-1.2107 -1.3837 -1.5568 -1.7008 -1.8411 -1.9888
-2.1104 -2.2666 -2.4078 -2.5153 -2.6528 -2.7641
-2.8913 -3.0119 -3.1045 -3.2279 -3.3261 -3.4365
-3.5468 -3.6385 -3.7488 -3.8629 -3.9826 -4.0743
-4.1912 -4.3305 -4.4343 -4.5465 -4.6354 -4.7485
-4.8860 -4.9683 -5.0609 -5.1535 -5.2115 -5.2648
-5.3106 -5.3471 -5.3602 -5.3602 -5.3545 -5.3153
-5.2872 -5.2554 -5.1909 -5.1535 -5.1170 -5.0618
-4.9880 -4.9103 -4.8411 -4.7439 -4.6606 -4.5699
-4.4530 -4.3389 -4.2052 -4.0677 -3.9462 -3.8087
-3.6581 -3.5113 -3.3607 -3.2036 -3.0475 -2.8791
-2.7052 -2.5481 -2.3788 -2.2086 -2.0599 -1.9037
-1.7438 -1.6082 -1.4651 -1.2968 -1.1500 -0.9985
-0.8236 -0.6814 -0.5393 -0.3719 -0.2335 -0.0998
0.0265 0.1200 0.2341 0.3267 0.4090 0.4913
0.5455 0.6213 0.6877 0.7606 0.8317 0.8897
0.9645 1.0122 1.0543 1.1038 1.1599 1.1992
1.2151 1.2478 1.2703 1.2759 1.2740 1.2806
1.2815 1.2572 1.2375 1.2226 1.1983 1.1702
1.1281 1.0814 1.0458 1.0168 0.9794 0.9345
0.9056 0.8541 0.8102 0.7905 0.7466 0.7045
0.6549 0.6119 0.5577 0.4754 0.4314 0.3566
0.2621 0.1995 0.1069 0.0330 -0.0156 -0.0914
-0.1746 -0.2466 -0.2980 -0.3457 -0.4074 -0.4682
-0.5028 -0.5524 -0.6029 -0.6207 -0.6562 -0.6805
-0.7002 -0.7329 -0.7338 -0.7497 -0.7722 -0.7759
-0.7862 -0.7937 -0.8199 -0.8638 -0.8722 -0.8797
-0.8928 -0.8937 -0.9022 -0.8928 -0.8937 -0.8975
-0.8620 -0.8264 -0.8143 -0.7759 -0.7114 -0.6749
-0.6197 -0.5674 -0.5159 -0.4355 -0.3719 -0.2990
-0.2223 -0.1475 -0.0708 0.0012 0.0826 0.1639
0.2406 0.2921 0.3369 0.3977 0.4398 0.4501
0.4576 0.4707 0.4725 0.4548 0.4557 0.4548
0.4071 0.3828 0.3538 0.3080 0.2967 0.2790
0.2668 0.2425 0.2116 0.2210 0.2191 0.2032
0.1864 0.1667 0.1499 0.1097 0.0583 -0.0147
-0.1073 -0.1737 -0.2447 -0.3317 -0.4121 -0.4916
-0.5721 -0.6534 -0.7179 -0.7834 -0.8592 -0.9209
-0.9807 -1.0294 -1.0677 -1.1079 -1.1247 -1.1425
-1.1453 -1.1350 -1.1416 -1.1089 -1.0584 -1.0490
-1.0163 -0.9602 -0.9125 -0.8535 -0.7965 -0.7105
-0.6216 -0.5449 -0.4383 -0.3149 -0.2186 -0.1026
0.0470 0.1649 0.3033 0.4202 0.5305 0.6727
0.7615 0.8775 0.9925 1.0673 1.1655 1.2160
1.2805 1.3432 1.3638 1.3899 1.4171 1.4470
1.4573 1.4666 1.4601 1.4779 1.4881 1.4676
1.4863 1.4741 1.4657 1.4638 1.4404 1.4339
1.4040 1.3703 1.3432 1.3039 1.2525 1.2010
1.1356 1.0458 0.9747 0.8812 0.7615 0.6586
0.5492 0.4174 0.2808 0.1733 0.0582 -0.0746
-0.1924 -0.2775 -0.3560 -0.4636 -0.5356 -0.5945
-0.6637 -0.6852 -0.7058 -0.7142 -0.7180 -0.7301
-0.7049 -0.6824 -0.6675 -0.6712 -0.6721 -0.6282
-0.6338 -0.6637 -0.6572 -0.6693 -0.6815 -0.6993
-0.7208 -0.7357 -0.7479 -0.7713 -0.8068 -0.8190
-0.8311 -0.8470 -0.8741 -0.8985 -0.9125 -0.9246
-0.9396 -0.9574 -0.9462 -0.9443 -0.9452 -0.9508
-0.9536 -0.9405 -0.9621 -0.9649 -0.9536 -0.9592
-0.9667 -0.9602 -0.9536 -0.9564 -0.9405 -0.9265
-0.8938 -0.8629 -0.8480 -0.8021 -0.7741 -0.7629
-0.7479 -0.7226 -0.6918 -0.6824 -0.6806 -0.6675
-0.6478 -0.6366 -0.6460 -0.6469 -0.6310 -0.6198
-0.5945 -0.5758 -0.5749 -0.5478 -0.5356 -0.5356
-0.4982 -0.4804 -0.4889 -0.4804 -0.4739 -0.4664
-0.4627 -0.4748 -0.4702 -0.4486 -0.4318 -0.4122
-0.3729 -0.3383 -0.2981 -0.2457 -0.1896 -0.1026
-0.0306 0.0648 0.1761 0.2873 0.4211 0.5183
0.6343 0.7774 0.9092 1.0280 1.1393 1.2562
1.3768 1.4872 1.5966 1.7191 1.8192 1.9033
1.9922 2.0698 2.1278 2.1923 2.2400 2.2718
2.3129 2.3101 2.3064 2.3045 2.2624 2.2129
2.1633 2.1128 2.0315 1.9510 1.8641 1.7425
1.6331 1.5395 1.4367 1.3104 1.2029 1.0822
0.9625 0.8718 0.7474 0.6418 0.5454 0.4239
0.3257 0.2247 0.1078 0.0115 -0.0942 -0.1962
-0.2747 -0.3636 -0.4468 -0.5141 -0.5805 -0.6535
-0.7245 -0.7741 -0.8171 -0.8489 -0.8779 -0.9153
-0.9406 -0.9602 -0.9537 -0.9546 -0.9509 -0.9097
-0.8667 -0.8040 -0.7432 -0.6834 -0.6207 -0.5497
-0.4618 -0.3954 -0.3383 -0.2654 -0.2018 -0.1419
-0.0924 -0.0690 -0.0447 -0.0073 0.0180 0.0161
0.0227 0.0330 0.0442 0.0610 0.0460 0.0563
0.0750 0.0853 0.1199 0.1349 0.1564 0.1667
0.1919 0.2471 0.2527 0.2920 0.3350 0.3500
0.3771 0.4033 0.4426 0.4650 0.5005 0.5482
0.5810 0.6333 0.6979 0.7465 0.8091 0.9055
0.9803 1.0448 1.1430 1.2365 1.3291 1.4395
1.5536 1.6742 1.8042 1.9417 2.0539 2.1848
2.3251 2.4251 2.5495 2.6730 2.7824 2.8946
3.0134 3.1471 3.2341 3.3248 3.4342 3.5240
3.6194 3.6914 3.7643 3.8429 3.9037 3.9514
3.9934 4.0337 4.0654 4.0916 4.0954 4.1047
4.1057 4.1066 4.0935 4.0580 4.0524 4.0262
3.9775 3.9560 3.9149 3.8522 3.7999 3.7447
3.6895 3.6016 3.5296 3.4838 3.3949 3.3201
3.2490 3.1630 3.1022 3.0255 2.9423 2.8899
2.8310 2.7740 2.7319 2.6935 2.6814 2.6524
2.6412 2.6449 2.6384 2.6655 2.6664 2.6701
2.6795 2.6645 2.6533 2.6486 2.6355 2.5907
2.5495 2.5018 2.4513 2.3765 2.3036 2.2353
2.1343 2.0548 1.9482 1.8481 1.7509 1.6414
1.5302 1.4142 1.3197 1.2075 1.1018 0.9803
0.8727 0.7829 0.6717 0.5725 0.4453 0.3322
0.2321 0.1087 0.0133 -0.0625 -0.1607 -0.2514
-0.3234 -0.4010 -0.4618 -0.5048 -0.5525 -0.5899
-0.5946 -0.6058 -0.6245 -0.6142 -0.6077 -0.6011
-0.5796 -0.5628 -0.5385 -0.4992 -0.4665 -0.4440
-0.4029 -0.3337 -0.2897 -0.2542 -0.2102 -0.1831
-0.1569 -0.1607 -0.1663 -0.1971 -0.2327 -0.2196
-0.2776 -0.3449 -0.3776 -0.4450 -0.5142 -0.5806
-0.6451 -0.7190 -0.8116 -0.9088 -0.9995 -1.1024
-1.2240 -1.3203 -1.4157 -1.5270 -1.6233 -1.7299
-1.8187 -1.8973 -2.0002 -2.0928 -2.1685 -2.2293
-2.2891 -2.3621 -2.4210 -2.4706 -2.5426 -2.5978
-2.6333 -2.6857 -2.7483 -2.7885 -2.8147 -2.8512
-2.8643 -2.8662 -2.8446 -2.8213 -2.8026 -2.7539
-2.7249 -2.6679 -2.5931 -2.5416 -2.4603 -2.3958
-2.3425 -2.2761 -2.2471 -2.2106 -2.1704 -2.1863
-2.2040 -2.2040 -2.2228 -2.2574 -2.2817 -2.3209
-2.3743 -2.4201 -2.4435 -2.4724 -2.5145 -2.5286
-2.5613 -2.5903 -2.5884 -2.6043 -2.6202 -2.6052
-2.5828 -2.5763 -2.5650 -2.5314 -2.4855 -2.4463
-2.4042 -2.3387 -2.2957 -2.2415 -2.1648 -2.1143
-2.0441 -1.9712 -1.9011 -1.8356 -1.7739 -1.6934
-1.6261 -1.5588 -1.4961 -1.4353 -1.3661 -1.3016
-1.2296 -1.1679 -1.0996 -1.0295 -0.9631 -0.8855
-0.8088 -0.7611 -0.7087 -0.6395 -0.6058 -0.5572
-0.5254 -0.4936 -0.4525 -0.4151 -0.3496 -0.3365
-0.2954 -0.2430 -0.2243 -0.1925 -0.1635 -0.1195
-0.0877 -0.0765 -0.0644 -0.0475 -0.0429 -0.0513
-0.0653 -0.0690 -0.0756 -0.0747 -0.0681 -0.0690
-0.0372 -0.0307 0.0011 0.0647 0.0965 0.1526
0.2143 0.2779 0.3424 0.4042 0.4706 0.5500
0.6445 0.7361 0.8400 0.9363 1.0354 1.1186
1.2019 1.3375 1.4244 1.5030 1.5825 1.6367
1.7405 1.8032 1.8565 1.9397 2.0117 2.0968
2.1455 2.1941 2.2633 2.3035 2.3334 2.3736
2.3980 2.3830 2.3858 2.3802 2.3512 2.3306
2.2857 2.2577 2.2371 2.1913 2.1716 2.1277
2.0716 2.0220 1.9622 1.9126 1.8602 1.8135
1.7265 1.6657 1.6012 1.5086 1.4777 1.4104
1.3599 1.3253 1.2701 1.2215 1.1486 1.1018
1.0354 0.9709 0.9026 0.8259 0.7576 0.6660
0.6118 0.5276 0.4191 0.3359 0.2424 0.1544
0.0478 -0.0457 -0.1457 -0.2608 -0.3412 -0.4431
-0.5292 -0.5890 -0.6807 -0.7611 -0.8275 -0.8892
-0.9294 -0.9491 -0.9622 -0.9827 -0.9734 -0.9519
-0.9388 -0.9135 -0.8705 -0.8051 -0.7461 -0.6545
-0.5488 -0.4712 -0.3599 -0.2505 -0.1299 0.0086
0.1133 0.2526 0.3901 0.5070 0.6342 0.7520
0.8773 0.9793 1.0728 1.1551 1.2421 1.3075
1.3674 1.4394 1.4721 1.5413 1.5703 1.5834
1.6096 1.6161 1.6573 1.6451 1.6386 1.6395
1.6311 1.6358 1.6040 1.5871 1.5675 1.5282
1.4955 1.4553 1.4123 1.3599 1.2888 1.2299
1.1570 1.0662 0.9858 0.8727 0.7773 0.6884
0.5594 0.4312 0.3041 0.2003 0.0787 -0.0728
-0.1925 -0.3169 -0.4469 -0.5965 -0.7274 -0.8397
-0.9706 -1.0856 -1.2016 -1.3054 -1.4092 -1.5186
-1.6252 -1.7215 -1.7833 -1.8759 -1.9778 -2.0227
-2.0825 -2.1471 -2.1807 -2.2415 -2.2957 -2.3481
-2.4211 -2.4669 -2.5080 -2.5772 -2.6371 -2.7128
-2.7905 -2.8419 -2.9055 -2.9448 -2.9897 -3.0448
-3.0785 -3.1019 -3.1112 -3.1430 -3.1299 -3.1103
-3.1131 -3.0822 -3.0785 -3.0392 -2.9869 -2.9560
-2.9205 -2.8877 -2.8307 -2.7942 -2.7736 -2.7297
-2.6745 -2.6352 -2.5772 -2.5202 -2.4828 -2.4379
-2.3893 -2.2911 -2.2191 -2.1676 -2.0535 -1.9703
-1.9002 -1.7823 -1.6991 -1.6234 -1.5280 -1.4578
-1.3699 -1.2942 -1.2259 -1.1427 -1.0903 -1.0557
-1.0108 -0.9566 -0.9201 -0.8733 -0.8313 -0.8107
-0.7649 -0.7293 -0.7116 -0.6910 -0.6526 -0.6190
-0.6040 -0.5993 -0.5881 -0.5741 -0.5732 -0.5573
-0.5301 -0.4899 -0.4862 -0.4609 -0.4030 -0.3843
-0.3553 -0.3057 -0.2720 -0.2365 -0.1953 -0.1804
-0.1682 -0.1804 -0.1776 -0.1841 -0.2458 -0.2702
-0.3076 -0.3908 -0.4853 -0.5750 -0.6695 -0.7892
-0.9080 -1.0164 -1.1455 -1.2633 -1.3671 -1.4934
-1.5897 -1.6832 -1.7824 -1.8703 -1.9451 -1.9900
-2.0582 -2.1031 -2.1228 -2.1630 -2.1705 -2.1882
-2.1836 -2.1630 -2.1733 -2.1349 -2.1321 -2.1349
-2.0947 -2.0844 -2.0723 -2.0592 -2.0844 -2.1050
-2.1041 -2.1321 -2.1490 -2.1836 -2.2182 -2.2256
-2.2874 -2.3332 -2.3575 -2.3902 -2.4136 -2.4276
-2.4435 -2.4566 -2.4641 -2.4809 -2.4650 -2.4482
-2.4445 -2.4230 -2.4024 -2.3659 -2.3154 -2.2808
-2.2144 -2.1312 -2.0657 -1.9657 -1.8609 -1.7562
-1.6851 -1.6150 -1.4934 -1.4111 -1.3297 -1.2278
-1.1436 -1.0567 -0.9800 -0.9080 -0.8145 -0.7256
-0.6284 -0.5386 -0.4769 -0.3964 -0.3179 -0.2440
-0.1757 -0.1075 -0.0336 0.0235 0.0871 0.1422
0.2002 0.2647 0.3059 0.3910 0.4658 0.5060
0.5921 0.6641 0.7267 0.8128 0.8932 0.9689
1.0503 1.1176 1.1840 1.2635 1.3271 1.3926
1.4393 1.4898 1.5328 1.5693 1.6245 1.6329
1.6395 1.6376 1.6264 1.6226 1.5880 1.5572
1.5319 1.4954 1.4337 1.3804 1.3308 1.2691
1.2205 1.1345 1.0503 0.9886 0.9016 0.8305
0.7679 0.7043 0.6650 0.6136 0.5790 0.5621
0.5228 0.5013 0.4826 0.4649 0.4434 0.4209
0.3975 0.3611 0.3358 0.2928 0.2572 0.2273
0.1834 0.1478 0.1198 0.0908 0.0581 0.0225
-0.0055 -0.0205 -0.0514 -0.0785 -0.0869 -0.0925
-0.0953 -0.1103 -0.1206 -0.1103 -0.1271 -0.1570
-0.1580 -0.1617 -0.1776 -0.1954 -0.2178 -0.2459
-0.2749 -0.3095 -0.3310 -0.3647 -0.4180 -0.4469
-0.4787 -0.5152 -0.5564 -0.5947 -0.6078 -0.6284
-0.6424 -0.6555 -0.6770 -0.6705 -0.6546 -0.6471
-0.6293 -0.6050 -0.5751 -0.5292 -0.4909 -0.4376
-0.3703 -0.3085 -0.2478 -0.1814 -0.1000 -0.0261
0.0412 0.1057 0.1740 0.2395 0.3208 0.3966
0.4714 0.5453 0.6079 0.6986 0.7847 0.8791
0.9586 1.0334 1.1344 1.2121 1.3009 1.4019
1.4861 1.5786 1.6656 1.7488 1.8564 1.9424
2.0369 2.1491 2.2520 2.3614 2.4671 2.5933
2.7083 2.8140 2.9169 3.0104 3.1310 3.2218
3.3115 3.4051 3.4920 3.5893 3.6622 3.7548
3.8446 3.9269 4.0251 4.1102 4.2121 4.3159
4.4010 4.5048 4.6180 4.7199 4.8424 4.9687
5.0846 5.2090 5.3418 5.4802 5.6074 5.7383
5.8590 5.9955 6.1423 6.2602 6.4126 6.5585
6.6866 6.8325 6.9494 7.0700 7.1888 7.2832
7.3646 7.4254 7.4918 7.5414 7.5479 7.5479
7.5545 7.5414 7.5049 7.4675 7.4366 7.3814
7.3020 7.2402 7.1832 7.1084 7.0064 6.9120
6.8185 6.7062 6.5856 6.4631 6.3434 6.2181
6.0918 5.9525 5.8337 5.7112 5.5700 5.4475
5.3353 5.2249 5.0669 4.9322 4.8078 4.6488
4.4936 4.3140 4.1410 3.9474 3.7286 3.5238
3.2872 3.0366 2.7747 2.4904 2.2220 1.9377
1.6413 1.3486 1.0671 0.7725 0.4555 0.1702
-0.1271 -0.4301 -0.7331 -1.0315 -1.3298 -1.6272
-1.9115 -2.2107 -2.4651 -2.7372 -3.0113 -3.2600
-3.5275 -3.7585 -3.9848 -4.2158 -4.4383 -4.6441
-4.8639 -5.0836 -5.2950 -5.5232 -5.7270 -5.9421
-6.1572 -6.3714 -6.5996 -6.8259 -7.0363 -7.2430
-7.4571 -7.6460 -7.8340 -7.9911 -8.1248 -8.2455
-8.3268 -8.3998 -8.4568 -8.4896 -8.5036 -8.4970
-8.4718 -8.4634 -8.4119 -8.3343 -8.2876 -8.2258
-8.1566 -8.0912 -8.0257 -7.9481 -7.8948 -7.8087
-7.6984 -7.6339 -7.5413 -7.4450 -7.3486 -7.2327
-7.1279 -6.9867 -6.8324 -6.6903 -6.5219 -6.3620
-6.2040 -6.0263 -5.8495 -5.6522 -5.4549 -5.2679
-5.0780 -4.8863 -4.6880 -4.4851 -4.2897 -4.0764
-3.8623 -3.6734 -3.4517 -3.2338 -3.0328 -2.8074
-2.5904 -2.3613 -2.1313 -1.9349 -1.7273 -1.5168
-1.3130 -1.1119 -0.9024 -0.6911 -0.4881 -0.2833
-0.0879 0.1253 0.3161 0.4910 0.7108 0.9165
1.0998 1.2896 1.4701 1.6441 1.8283 1.9929
2.1491 2.3090 2.4380 2.5755 2.6933 2.8065
2.9365 3.0347 3.1488 3.2479 3.3433 3.4564
3.5247 3.5874 3.6734 3.7501 3.7969 3.8604
3.9287 3.9773 4.0409 4.0877 4.1382 4.1662
4.1980 4.2336 4.2420 4.2701 4.2654 4.2635
4.2551 4.2158 4.2018 4.1859 4.1588 4.1232
4.0905 4.0624 4.0091 3.9717 3.9540 3.9091
3.8838 3.8642 3.8118 3.8025 3.7753 3.7248
3.7089 3.6697 3.6369 3.5902 3.5415 3.5041
3.4499 3.4331 3.3844 3.3358 3.3208 3.2535
3.1908 3.1516 3.1039 3.0412 2.9552 2.8635
2.7850 2.7130 2.6148 2.5306 2.4455 2.3417
2.2398 2.1229 2.0172 1.8900 1.7497 1.6384
1.5028 1.3448 1.2008 1.0455 0.8791 0.7061
0.5200 0.3441 0.1608 -0.0056 -0.1693 -0.3432
-0.4947 -0.6415 -0.8080 -0.9492 -1.0596 -1.1905
-1.3036 -1.4121 -1.5047 -1.5842 -1.6880 -1.7890
-1.8881 -1.9573 -2.0359 -2.1350 -2.2014 -2.2603
-2.3623 -2.4483 -2.5054 -2.6008 -2.6868 -2.7607
-2.8364 -2.9038 -2.9832 -3.0506 -3.1338 -3.2049
-3.2470 -3.2825 -3.3021 -3.3452 -3.3592 -3.3816
-3.3882 -3.3424 -3.3461 -3.3218 -3.2685 -3.2264
-3.1796 -3.1310 -3.0814 -3.0375 -2.9935 -2.9524
-2.8991 -2.8663 -2.8420 -2.8084 -2.7672 -2.7289
-2.7139 -2.6877 -2.6363 -2.5980 -2.5727 -2.5316
-2.4820 -2.4334 -2.3903 -2.3464 -2.2819 -2.2155
-2.1612 -2.0995 -2.0294 -1.9751 -1.9143 -1.8554
-1.8031 -1.7404 -1.7011 -1.6487 -1.5926 -1.5477
-1.4851 -1.4449 -1.3785 -1.2952 -1.2457 -1.1802
-1.1091 -1.0540 -1.0053 -0.9576 -0.8913 -0.8351
-0.8043 -0.7622 -0.7173 -0.6939 -0.6724 -0.6434
-0.6172 -0.5911 -0.5789 -0.5565 -0.5200 -0.5060
-0.4938 -0.4704 -0.4424 -0.4106 -0.3956 -0.4096
-0.3835 -0.3432 -0.3273 -0.2993 -0.2712 -0.2179
-0.1758 -0.1328 -0.0646 -0.0103 0.0486 0.1066
0.1795 0.2403 0.2936 0.3759 0.4535 0.5283
0.5882 0.6574 0.7519 0.8145 0.8659 0.9155
0.9688 1.0034 1.0081 1.0287 1.0362 1.0502
1.0773 1.0679 1.0679 1.0895 1.0866 1.0969
1.1222 1.1474 1.1886 1.2092 1.2232 1.2559
1.2812 1.3017 1.3354 1.3644 1.3896 1.4271
1.4458 1.4673 1.5047 1.5131 1.5327 1.5636
1.5701 1.5701 1.5851 1.6094 1.6337 1.6674
1.6852 1.7151 1.7590 1.7880 1.8376 1.8582
1.9059 1.9732 2.0050 2.0602 2.0892 2.1294
2.1911 2.2435 2.3033 2.3473 2.4099 2.4688
2.5231 2.5829 2.6465 2.7026 2.7438 2.8083
2.8644 2.9130 2.9467 2.9738 3.0187 3.0346
3.0524 3.0561 3.0515 3.0617 3.0552 3.0664
3.0599 3.0318 3.0150 2.9813 2.9439 2.9224
2.8878 2.8289 2.7728 2.7195 2.6503 2.5754
2.5165 2.4585 2.4043 2.3529 2.3136 2.2902
2.2388 2.1864 2.1415 2.1237 2.1172 2.0667
2.0181 1.9863 1.9395 1.8825 1.8348 1.7721
1.7076 1.6683 1.5898 1.5037 1.4467 1.3719
1.2989 1.2484 1.1830 1.1268 1.0791 0.9997
0.9473 0.8846 0.8220 0.7948 0.7350 0.6910
0.6546 0.5695 0.5115 0.4619 0.3955 0.3422
0.2571 0.1739 0.0701 -0.0309 -0.0983 -0.1852
-0.2806 -0.3713 -0.4237 -0.4966 -0.5705 -0.6201
-0.6790 -0.7052 -0.7519 -0.8015 -0.8043 -0.8212
-0.8473 -0.8763 -0.9193 -0.9483 -0.9801 -1.0288
-1.0680 -1.1036 -1.1747 -1.2298 -1.2682 -1.3327
-1.3982 -1.4786 -1.5291 -1.5936 -1.6778 -1.7273
-1.8012 -1.8798 -1.9462 -2.0079 -2.0603 -2.1276
-2.2052 -2.2669 -2.3333 -2.4156 -2.4802 -2.5475
-2.6064 -2.6775 -2.7673 -2.8514 -2.9468 -3.0441
-3.1348 -3.2115 -3.2966 -3.3742 -3.4612 -3.5369
-3.5799 -3.6370 -3.6828 -3.7427 -3.7978 -3.8025
-3.8287 -3.9007 -3.9204 -3.9166 -3.9624 -3.9746
-3.9737 -3.9802 -3.9643 -3.9652 -3.9353 -3.8988
-3.8652 -3.8053 -3.7661 -3.7081 -3.6342 -3.5753
-3.4949 -3.4219 -3.3639 -3.2891 -3.2236 -3.1442
-3.0366 -2.9721 -2.9169 -2.8215 -2.7392 -2.6784
-2.5961 -2.5232 -2.4596 -2.3857 -2.3137 -2.2417
-2.1716 -2.0902 -2.0023 -1.9294 -1.8583 -1.7676
-1.6787 -1.5861 -1.4973 -1.4197 -1.3280 -1.2485
-1.1719 -1.0924 -1.0185 -0.9614 -0.9100 -0.8511
-0.8071 -0.7454 -0.7080 -0.6902 -0.6500 -0.6201
-0.5864 -0.5575 -0.5331 -0.5107 -0.5060 -0.5070
-0.4957 -0.4808 -0.4742 -0.4733 -0.4602 -0.4293
-0.4050 -0.3685 -0.3265 -0.2928 -0.2320 -0.1750
-0.1123 -0.0431 0.0261 0.1075 0.1832 0.2646
0.3459 0.4207 0.4946 0.5956 0.6648 0.7163
0.7986 0.8434 0.8977 0.9482 0.9903 1.0436
1.0913 1.1455 1.1717 1.2222 1.2465 1.2792
1.3325 1.3494 1.4017 1.4017 1.4261 1.4812
1.5037 1.5514 1.5729 1.6131 1.6767 1.7188
1.7637 1.8067 1.8675 1.9339 1.9741 2.0274
2.0769 2.1087 2.1471 2.1929 2.2275 2.2350
2.2415 2.2621 2.2752 2.2705 2.2649 2.2565
2.2612 2.2546 2.2387 2.2303 2.2060 2.1976
2.1723 2.1359 2.1228 2.1003 2.0676 2.0451
2.0498 2.0517 2.0442 2.0311 2.0302 2.0367
2.0283 2.0302 2.0283 1.9984 1.9666 1.9376
1.8993 1.8366 1.7693 1.7300 1.6785 1.6075
1.5439 1.4840 1.4363 1.3896 1.3194 1.2577
1.1923 1.1277 1.0884 1.0220 0.9650 0.9108
0.8472 0.8191 0.7639 0.6919 0.6620 0.6396
0.5956 0.5451 0.5105 0.4806 0.4516 0.4160
0.3889 0.3852 0.3777 0.3777 0.3936 0.4067
0.4273 0.4338 0.4404 0.4581 0.4684 0.5142
0.5404 0.5488 0.5760 0.5984 0.6199 0.6470
0.6882 0.7181 0.7658 0.8088 0.8294 0.8668
0.8911 0.8911 0.8967 0.9033 0.8874 0.8724
0.8434 0.8163 0.7854 0.7443 0.7228 0.6929
0.6751 0.6480 0.6339 0.6330 0.5900 0.5853
0.5853 0.5488 0.5498 0.5283 0.4880 0.4731
0.4198 0.3740 0.3506 0.3010 0.2542 0.2215
0.1710 0.1224 0.0822 0.0205 -0.0319 -0.0927
-0.1834 -0.2517 -0.3274 -0.4228 -0.5061 -0.5968
-0.6772 -0.7735 -0.8801 -0.9755 -1.0718 -1.1485
-1.2402 -1.3122 -1.3636 -1.4291 -1.4833 -1.5376
-1.5843 -1.6367 -1.6994 -1.7620 -1.8153 -1.8826
-1.9425 -2.0070 -2.0744 -2.1258 -2.2240 -2.3091
-2.3895 -2.4849 -2.5859 -2.6963 -2.7804 -2.8683
-2.9656 -3.0638 -3.1648 -3.2714 -3.3761 -3.4687
-3.5594 -3.6483 -3.7343 -3.8447 -3.9475 -4.0158
-4.0906 -4.1570 -4.2141 -4.2515 -4.2805 -4.3225
-4.3450 -4.3347 -4.3366 -4.3637 -4.3497 -4.3104
-4.2805 -4.2777 -4.2487 -4.1888 -4.1439 -4.0747
-4.0008 -3.9344 -3.8447 -3.7353 -3.6483 -3.5454
-3.4257 -3.3097 -3.1872 -3.0741 -2.9329 -2.8150
-2.6963 -2.5607 -2.4419 -2.3185 -2.2147 -2.0875
-1.9865 -1.8995 -1.7732 -1.6741 -1.5834 -1.4749
-1.3767 -1.2757 -1.1532 -1.0504 -0.9465 -0.8166
-0.6950 -0.5781 -0.4593 -0.3424 -0.1993 -0.0703
0.0504 0.1850 0.3197 0.4590 0.5881 0.7143
0.8275 0.9378 1.0416 1.1417 1.2249 1.2904
1.3736 1.4204 1.4793 1.5504 1.5803 1.6336
1.6963 1.7421 1.7851 1.8422 1.8927 1.9432
1.9974 2.0488 2.1255 2.1770 2.2312 2.2985
2.3275 2.3790 2.4351 2.4594 2.4996 2.5286
2.5417 2.5725 2.5884 2.5810 2.5763 2.5594
2.5473 2.5295 2.5043 2.4734 2.4173 2.3827
2.3294 2.2817 2.2340 2.1760 2.1330 2.0675
2.0348 1.9993 1.9413 1.9142 1.8805 1.8552
1.8328 1.8104 1.8169 1.7907 1.7636 1.7514
1.7253 1.7187 1.6888 1.6579 1.6261 1.5981
1.5794 1.5233 1.4961 1.4550 1.4138 1.3933
1.3269 1.3119 1.2885 1.2474 1.2530 1.2212
1.1978 1.2006 1.1632 1.1501 1.1454 1.1211
1.1333 1.1155 1.1015 1.1024 1.0940 1.1090
1.1043 1.1174 1.1361 1.1744 1.2015 1.2090
1.2679 1.3082 1.3278 1.3764 1.4297 1.4653
1.5055 1.5345 1.5691 1.6046 1.6261 1.6439
1.6710 1.7215 1.7374 1.7664 1.7926 1.7982
1.8375 1.8552 1.8758 1.8992 1.8852 1.8711
1.8777 1.8646 1.8356 1.8206 1.8066 1.7851
1.7542 1.7299 1.6944 1.6654 1.6270 1.5775
1.5550 1.5176 1.4821 1.4381 1.3904 1.3484
1.2894 1.2315 1.1810 1.1436 1.1005 1.0613
1.0304 0.9799 0.9472 0.9247 0.8892 0.8611
0.8256 0.7966 0.7760 0.7489 0.7199 0.6891
0.6591 0.6386 0.6030 0.5665 0.5572 0.5067
0.4553 0.4216 0.3702 0.3178 0.2776 0.2102
0.1139 0.0690 -0.0114 -0.1096 -0.1732 -0.2648
-0.3443 -0.4322 -0.5108 -0.5791 -0.6875 -0.7773
-0.8718 -0.9597 -1.0345 -1.1215 -1.2103 -1.2889
-1.3515 -1.4319 -1.4591 -1.4927 -1.5311 -1.5470
-1.5872 -1.5863 -1.5984 -1.5993 -1.5965 -1.5863
-1.5778 -1.5881 -1.5844 -1.6022 -1.5741 -1.5647
-1.5788 -1.5498 -1.5320 -1.5264 -1.5040 -1.4572
-1.4422 -1.4217 -1.3777 -1.3459 -1.3048 -1.2748
-1.2393 -1.1879 -1.1477 -1.1037 -1.0560 -1.0008
-0.9522 -0.9251 -0.8690 -0.8241 -0.7904 -0.7399
-0.7034 -0.6511 -0.6324 -0.6202 -0.5903 -0.5819
-0.5632 -0.5847 -0.6062 -0.5959 -0.6071 -0.6221
-0.6473 -0.6707 -0.6932 -0.7240 -0.7352 -0.7530
-0.7689 -0.7848 -0.7801 -0.7427 -0.7418 -0.7212
-0.6950 -0.6782 -0.6127 -0.5529 -0.5304 -0.4912
-0.4285 -0.3752 -0.3350 -0.2873 -0.2190 -0.1508
-0.0947 -0.0423 0.0325 0.0914 0.1494 0.2252
0.2981 0.3570 0.3870 0.4515 0.4945 0.5011
0.5357 0.5562 0.5703 0.5777 0.5693 0.5759
0.5796 0.5646 0.5618 0.5562 0.5385 0.5347
0.5095 0.4945 0.4926 0.4636 0.4608 0.4459
0.4244 0.4188 0.3748 0.3617 0.3561 0.3047
0.2766 0.2626 0.2327 0.2149 0.1719 0.1279
0.1373 0.1055 0.0681 0.0690 0.0503 0.0232
0.0054 0.0063 -0.0283 -0.0619 -0.0601 -0.0984
-0.1078 -0.1040 -0.1190 -0.1208 -0.1377 -0.1452
-0.1611 -0.1611 -0.1498 -0.1611 -0.1639 -0.1667
-0.1723 -0.1723 -0.1639 -0.1863 -0.2041 -0.2022
-0.2303 -0.2443 -0.2742 -0.2967 -0.2957 -0.3163
-0.3247 -0.3397 -0.3425 -0.3453 -0.3649 -0.3509
-0.3416 -0.3425 -0.3229 -0.3004 -0.2770 -0.2583
-0.2378 -0.2041 -0.1844 -0.1751 -0.1349 -0.0900
-0.0629 -0.0142 0.0334 0.0568 0.0989 0.1344
0.1681 0.2083 0.2298 0.2719 0.3252 0.3477
0.3589 0.3869 0.4206 0.4459 0.4833 0.5076
0.5225 0.5338 0.5422 0.5805 0.5964 0.6310
0.6675 0.6535 0.6722 0.6853 0.6881 0.7049
0.7086 0.7012 0.7002 0.6834 0.6628 0.6591
0.6095 0.5693 0.5169 0.4543 0.4113 0.3252
0.2560 0.1803 0.0867 0.0035 -0.0937 -0.1676
-0.2649 -0.3790 -0.4650 -0.5698 -0.6605 -0.7353
-0.8241 -0.8971 -0.9728 -1.0542 -1.1514 -1.2506
-1.3216 -1.4133 -1.4993 -1.5826 -1.6817 -1.7556
-1.8519 -1.9529 -2.0268 -2.1334 -2.2260 -2.2839
-2.3803 -2.4701 -2.5252 -2.6019 -2.6739 -2.7469
-2.8020 -2.8394 -2.9068 -2.9330 -2.9517 -3.0012
-3.0050 -3.0181 -3.0443 -3.0265 -3.0237 -3.0162
-2.9853 -2.9620 -2.9507 -2.9367 -2.8900 -2.8610
-2.8357 -2.7861 -2.7403 -2.7113 -2.6646 -2.6047
-2.5767 -2.5290 -2.4701 -2.4242 -2.3784 -2.3129
-2.2465 -2.2054 -2.1558 -2.0969 -2.0184 -1.9613
-1.9052 -1.8098 -1.7444 -1.6593 -1.5732 -1.4956
-1.4021 -1.3217 -1.2160 -1.1309 -1.0476 -0.9448
-0.8709 -0.7793 -0.6923 -0.6165 -0.5314 -0.4678
-0.4136 -0.3388 -0.2686 -0.2200 -0.1574 -0.0928
-0.0264 0.0493 0.1110 0.1718 0.2345 0.2859
0.3448 0.4122 0.4449 0.4991 0.5711 0.6057
0.6506 0.6946 0.7311 0.7713 0.7965 0.8124
0.8274 0.8358 0.8526 0.8573 0.8470 0.8573
0.8545 0.8592 0.8798 0.8788 0.8844 0.8863
0.8769 0.8788 0.8751 0.8713 0.8657 0.8582
0.8526 0.8377 0.8321 0.8124 0.7975 0.7825
0.7694 0.7638 0.7208 0.7217 0.7021 0.6534
0.6357 0.5880 0.5319 0.5019 0.4664 0.4056
0.3710 0.3355 0.2915 0.2448 0.1896 0.1540
0.1176 0.0727 0.0334 0.0072 -0.0293 -0.0667
-0.0928 -0.1312 -0.1405 -0.1667 -0.2004 -0.2088
-0.2574 -0.2846 -0.3023 -0.3238 -0.3435 -0.3697
-0.3603 -0.3669 -0.3762 -0.3659 -0.3491 -0.3210
-0.2986 -0.2808 -0.2546 -0.2154 -0.1938 -0.1742
-0.1443 -0.1321 -0.1116 -0.0957 -0.0816 -0.0564
-0.0554 -0.0582 -0.0489 -0.0395 -0.0433 -0.0452
-0.0498 -0.0545 -0.0732 -0.1144 -0.1209 -0.1284
-0.1508 -0.1808 -0.2088 -0.2088 -0.2088 -0.2135
-0.2116 -0.2060 -0.1995 -0.1798 -0.1555 -0.1172
-0.0891 -0.0704 -0.0143 0.0306 0.0764 0.1288
0.1830 0.2476 0.2990 0.3701 0.4542 0.5178
0.5973 0.6890 0.7675 0.8498 0.9321 1.0116
1.0836 1.1799 1.2744 1.3417 1.4343 1.5213
1.6036 1.6737 1.7476 1.8430 1.9009 1.9543
2.0225 2.0814 2.1310 2.1675 2.1946 2.2245
2.2713 2.3068 2.3339 2.3629 2.3704 2.3723
2.3798 2.3929 2.4331 2.4368 2.4144 2.4106
2.4041 2.4078 2.4003 2.3816 2.3826 2.3760
2.3573 2.3302 2.3134 2.2900 2.2591 2.2647
2.2311 2.2096 2.2096 2.1843 2.1749 2.1488
2.1478 2.1562 2.1432 2.1347 2.1226 2.1207
2.1216 2.1114 2.1160 2.1151 2.1123 2.1244
2.0983 2.0927 2.0889 2.0655 2.0524 2.0347
2.0160 1.9842 1.9533 1.9075 1.8691 1.8411
1.7803 1.7335 1.7083 1.6681 1.6372 1.6138
1.6007 1.5942 1.5633 1.5755 1.5858 1.5736
1.5942 1.6194 1.6447 1.6540 1.6671 1.6952
1.7420 1.7775 1.7859 1.8121 1.8383 1.8635
1.8691 1.8869 1.9093 1.8944 1.9103 1.9224
1.9112 1.8991 1.8747 1.8738 1.8757 1.8607
1.8429 1.8411 1.8495 1.8373 1.8327 1.8551
1.8710 1.8766 1.8766 1.8963 1.9150 1.9168
1.9243 1.9318 1.9589 1.9664 1.9617 1.9785
1.9935 2.0150 2.0337 2.0552 2.0777 2.0926
2.1160 2.1459 2.1777 2.1992 2.2058 2.2226
2.2460 2.2591 2.2787 2.3124 2.3292 2.3395
2.3367 2.3386 2.3582 2.3526 2.3405 2.3433
2.3498 2.3255 2.3012 2.2853 2.2666 2.2479
2.2170 2.2002 2.1534 2.1198 2.0889 2.0197
1.9841 1.9449 1.9000 1.8467 1.7868 1.7504
1.6914 1.6419 1.5820 1.5147 1.4586 1.3697
1.3061 1.2416 1.1518 1.0761 1.0069 0.9311
0.8385 0.7731 0.7142 0.6496 0.5935 0.5215
0.4523 0.4093 0.3616 0.3008 0.2419 0.1895
0.1372 0.0885 0.0464 -0.0153 -0.0639 -0.1172
-0.1986 -0.2500 -0.3211 -0.4221 -0.4829 -0.5502
-0.6325 -0.7185 -0.8102 -0.8841 -0.9523 -1.0215
-1.0776 -1.1375 -1.2273 -1.2937 -1.3535 -1.4283
-1.5013 -1.5855 -1.6453 -1.6930 -1.7716 -1.8604
-1.9165 -1.9577 -2.0100 -2.0727 -2.1138 -2.1353
-2.1690 -2.2055 -2.2429 -2.2532 -2.2850 -2.3420
-2.3794 -2.4009 -2.4206 -2.4552 -2.4776 -2.5094
-2.5403 -2.5852 -2.6198 -2.6170 -2.6366 -2.6469
-2.6590 -2.6600 -2.6637 -2.6693 -2.6478 -2.6357
-2.5973 -2.5739 -2.5468 -2.4907 -2.4505 -2.4159
-2.3850 -2.3355 -2.2653 -2.2036 -2.1494 -2.0727
-2.0185 -1.9586 -1.8885 -1.8314 -1.7557 -1.7005
-1.6285 -1.5649 -1.5200 -1.4592 -1.4031 -1.3489
-1.2862 -1.2385 -1.2086 -1.1497 -1.0992 -1.0533
-0.9972 -0.9486 -0.8906 -0.8317 -0.7662 -0.7157
-0.6709 -0.6073 -0.5437 -0.4950 -0.4511 -0.3810
-0.3230 -0.2678 -0.2136 -0.1818 -0.1191 -0.0798
-0.0574 -0.0293 -0.0116 0.0258 0.0408 0.0455
0.0642 0.0801 0.0707 0.0679 0.0773 0.0595
0.0389 0.0249 0.0053 -0.0396 -0.0658 -0.1032
-0.1762 -0.2295 -0.2931 -0.3585 -0.4165 -0.4857
-0.5484 -0.6082 -0.6606 -0.7111 -0.7728 -0.8186
-0.8457 -0.9037 -0.9542 -0.9692 -1.0141 -1.0393
-1.0683 -1.1160 -1.1198 -1.1179 -1.1300 -1.1469
-1.1216 -1.0898 -1.0954 -1.0580 -1.0197 -0.9991
-0.9458 -0.9271 -0.8888 -0.8233 -0.7906 -0.7448
-0.7083 -0.6531 -0.5904 -0.5343 -0.4838 -0.4352
-0.3707 -0.3192 -0.2528 -0.1939 -0.1303 -0.0808
-0.0387 0.0305 0.0726 0.1287 0.1857 0.2250
0.2821 0.3148 0.3494 0.3980 0.4158 0.4336
0.4607 0.4747 0.4850 0.5065 0.5196 0.5280
0.5486 0.5383 0.5449 0.5336 0.5074 0.5168
0.4878 0.4532 0.4261 0.4046 0.3709 0.3129
0.2662 0.2334 0.1895 0.1278 0.0904 0.0417
-0.0163 -0.0640 -0.1145 -0.1939 -0.2800 -0.3473
-0.4287 -0.5175 -0.6232 -0.7176 -0.7981 -0.9000
-1.0132 -1.1338 -1.2488 -1.3442 -1.4695 -1.6033
-1.7071 -1.8277 -1.9437 -2.0568 -2.1616 -2.2467
-2.3561 -2.4328 -2.4964 -2.5759 -2.6310 -2.6937
-2.7582 -2.7891 -2.8143 -2.8592 -2.8873 -2.8882
-2.8910 -2.9032 -2.9004 -2.8826 -2.8742 -2.8620
-2.8284 -2.7891 -2.7685 -2.7330 -2.6871 -2.6357
-2.5843 -2.5254 -2.4449 -2.3795 -2.2990 -2.2224
-2.1597 -2.0868 -2.0166 -1.9614 -1.8988 -1.8240
-1.7819 -1.7305 -1.6678 -1.6220 -1.5640 -1.5191
-1.4658 -1.4022 -1.3667 -1.2956 -1.2386 -1.1881
-1.1273 -1.1001 -1.0338 -0.9814 -0.9337 -0.8823
-0.8374 -0.7663 -0.7270 -0.6709 -0.5980 -0.5344
-0.4698 -0.4175 -0.3529 -0.3043 -0.2650 -0.2192
-0.1902 -0.1668 -0.1463 -0.1631 -0.1547 -0.1472
-0.1827 -0.1874 -0.2127 -0.2295 -0.2547 -0.3090
-0.3099 -0.3305 -0.3670 -0.3922 -0.4184 -0.4352
-0.4352 -0.4521 -0.4857 -0.4764 -0.4988 -0.5269
-0.5157 -0.5213 -0.5073 -0.4951 -0.4773 -0.4558
-0.4502 -0.4268 -0.4044 -0.3707 -0.3249 -0.2968
-0.2865 -0.2538 -0.2117 -0.1902 -0.1715 -0.1538
-0.1369 -0.1163 -0.1107 -0.1154 -0.0864 -0.0677
-0.0799 -0.0565 -0.0378 -0.0378 -0.0331 -0.0266
-0.0051 -0.0200 -0.0341 -0.0294 -0.0406 -0.0397
-0.0509 -0.0659 -0.0789 -0.0818 -0.1042 -0.1332
-0.1164 -0.1276 -0.1323 -0.1341 -0.1491 -0.1266
-0.1294 -0.1397 -0.1285 -0.1276 -0.1379 -0.1519
-0.1584 -0.1715 -0.1930 -0.2071 -0.2267 -0.2548
-0.2688 -0.2847 -0.3118 -0.3277 -0.3268 -0.3324
-0.3184 -0.2959 -0.3081 -0.2810 -0.2333 -0.1837
-0.1323 -0.0977 -0.0051 0.0725 0.1343 0.2166
0.2858 0.3671 0.4429 0.5224 0.5934 0.6496
0.7188 0.7608 0.8020 0.8665 0.9039 0.9488
0.9928 1.0124 1.0479 1.0844 1.1106 1.1358
1.1508 1.1910 1.2378 1.2546 1.3004 1.3425
1.3940 1.4585 1.4884 1.5623 1.6156 1.6567
1.7344 1.7662 1.8269 1.8802 1.9092 1.9869
2.0448 2.1094 2.1636 2.1954 2.2337 2.2618
2.2814 2.3029 2.3413 2.3413 2.3282 2.3235
2.3142 2.3151 2.2814 2.2534 2.2309 2.1823
2.1486 2.1374 2.1103 2.0663 2.0243 1.9728
1.9579 1.9064 1.8354 1.7979 1.7390 1.6969
1.6418 1.5931 1.5408 1.4734 1.4126 1.3528
1.2864 1.1891 1.1246 1.0526 0.9703 0.9189
0.8282 0.7384 0.6570 0.5635 0.4924 0.4251
0.3334 0.2624 0.1960 0.1071 0.0613 -0.0303
-0.1164 -0.1201 -0.1893 -0.2922 -0.3455 -0.3670
-0.3979 -0.4680 -0.5428 -0.5727 -0.5802 -0.6055
-0.6279 -0.6457 -0.6644 -0.6700 -0.6803 -0.6812
-0.6840 -0.6896 -0.6597 -0.6709 -0.6943 -0.6663
-0.6672 -0.6934 -0.6831 -0.6663 -0.6700 -0.6691
-0.6625 -0.6635 -0.6625 -0.6579 -0.6597 -0.6448
-0.6289 -0.6382 -0.6335 -0.6083 -0.5812 -0.5728
-0.5503 -0.5129 -0.4905 -0.4718 -0.4568 -0.4026
-0.3605 -0.3408 -0.2875 -0.2389 -0.1940 -0.1538
-0.1183 -0.0790 -0.0350 0.0136 0.0519 0.0959
0.1492 0.1932 0.2371 0.2839 0.3316 0.3708
0.4157 0.4840 0.5382 0.5915 0.6374 0.6860
0.7505 0.7973 0.8590 0.9067 0.9310 0.9722
1.0142 1.0423 1.0535 1.0741 1.0872 1.0825
1.0844 1.0750 1.0582 1.0507 1.0386 1.0170
0.9881 0.9647 0.9413 0.8973 0.8468 0.8169
0.7730 0.7038 0.6663 0.6205 0.5756 0.5336
0.4531 0.4036 0.3680 0.3213 0.2839 0.2455
0.1950 0.1483 0.1211 0.0725 0.0314 0.0201
-0.0135 -0.0369 -0.0650 -0.1108 -0.1295 -0.1538
-0.1847 -0.1950 -0.2118 -0.2230 -0.2118 -0.2174
-0.2165 -0.1978 -0.1903 -0.1641 -0.1454 -0.1351
-0.0893 -0.0537 -0.0341 0.0014 0.0267 0.0435
0.0697 0.1024 0.1324 0.1482 0.1632 0.1941
0.2287 0.2698 0.3007 0.3241 0.3680 0.4101
0.4578 0.4971 0.5373 0.5981 0.6626 0.7224
0.7767 0.8627 0.9235 0.9852 1.0666 1.1386
1.2059 1.2686 1.3556 1.4135 1.4566 1.5015
1.5576 1.6090 1.6455 1.6932 1.7165 1.7530
1.7698 1.7839 1.8138 1.8138 1.8334 1.8624
1.8877 1.9176 1.9457 1.9410 1.9494 1.9765
1.9784 2.0046 2.0093 2.0083 2.0205 2.0121
2.0093 1.9999 2.0064 2.0102 1.9709 1.9597
1.9756 1.9559 1.9288 1.9092 1.8924 1.8671
1.8409 1.8334 1.8119 1.7932 1.7811 1.7483
1.7212 1.7062 1.7091 1.6969 1.6745 1.6642
1.6389 1.6324 1.6109 1.5819 1.5538 1.5267
1.5295 1.4874 1.4481 1.4453 1.3976 1.3640
1.3443 1.3088 1.2789 1.2228 1.1853 1.1479
1.1002 1.0582 1.0133 0.9665 0.9123 0.8721
0.8141 0.7748 0.7365 0.6747 0.6383 0.6009
0.5700 0.5101 0.4709 0.4372 0.3689 0.3558
0.3194 0.2801 0.2492 0.1950 0.1594 0.1136
0.0837 0.0500 0.0042 -0.0182 -0.0603 -0.1183
-0.1548 -0.1866 -0.2417 -0.2810 -0.3353 -0.4026
-0.4344 -0.5045 -0.5588 -0.6130 -0.7150 -0.7645
-0.8281 -0.9179 -0.9805 -1.0497 -1.0956 -1.1423
-1.2125 -1.2620 -1.2994 -1.3369 -1.3827 -1.4191
-1.4360 -1.4500 -1.4781 -1.4968 -1.5014 -1.5304
-1.5454 -1.5585 -1.5809 -1.5791 -1.6024 -1.6314
-1.6408 -1.6698 -1.6894 -1.7128 -1.7324 -1.7511
-1.7895 -1.8101 -1.8306 -1.8484 -1.8783 -1.9167
-1.9410 -1.9578 -1.9840 -2.0177 -2.0167 -2.0195
-2.0373 -2.0364 -2.0467 -2.0495 -2.0308 -2.0270
-2.0195 -1.9990 -1.9849 -1.9812 -1.9793 -1.9597
-1.9531 -1.9522 -1.9485 -1.9466 -1.9485 -1.9690
-1.9784 -2.0008 -2.0158 -2.0382 -2.0878 -2.1243
-2.1542 -2.1879 -2.2225 -2.2440 -2.2917 -2.3356
-2.3637 -2.3964 -2.4170 -2.4722 -2.5236 -2.5479
-2.5825 -2.6068 -2.6349 -2.6499 -2.6686 -2.6985
-2.7209 -2.7340 -2.7350 -2.7499 -2.7583 -2.7649
-2.7733 -2.7742 -2.7901 -2.8004 -2.7845 -2.7808
-2.7948 -2.7892 -2.7771 -2.7742 -2.7995 -2.8051
-2.7976 -2.7976 -2.7967 -2.8238 -2.8313 -2.8266
-2.8322 -2.8229 -2.8154 -2.8079 -2.7855 -2.7827
-2.7602 -2.7275 -2.7125 -2.6789 -2.6564 -2.6256
-2.5835 -2.5479 -2.5124 -2.4703 -2.4273 -2.3964
-2.3366 -2.2721 -2.2412 -2.1954 -2.1374 -2.0803
-2.0177 -1.9775 -1.9158 -1.8419 -1.7848 -1.7287
-1.6735 -1.5969 -1.5407 -1.4818 -1.4154 -1.3715
-1.3070 -1.2555 -1.2041 -1.1470 -1.1031 -1.0582
-1.0124 -0.9656 -0.9385 -0.8852 -0.8160 -0.7823
-0.7524 -0.7112 -0.6607 -0.6065 -0.5569 -0.5195
-0.4887 -0.4428 -0.3895 -0.3493 -0.3026 -0.2567
-0.2072 -0.1445 -0.0837 -0.0323 -0.0033 0.0481
0.1220 0.1790 0.2211 0.2613 0.3296 0.3689
0.4072 0.4727 0.5092 0.5597 0.6204 0.6681
0.7112 0.7635 0.8150 0.8542 0.9104 0.9534
1.0048 1.0506 1.0693 1.1198 1.1591 1.2031
1.2610 1.2910 1.3349 1.3807 1.4144 1.4518
1.4808 1.5238 1.5640 1.5958 1.6370 1.6613
1.7006 1.7296 1.7445 1.7819 1.7904 1.8193
1.8502 1.8539 1.8783 1.8857 1.8895 1.8839
1.8773 1.8885 1.8577 1.8259 1.8100 1.7735
1.7567 1.7099 1.6604 1.6435 1.5865 1.5397
1.4958 1.4340 1.3901 1.3415 1.2797 1.2395
1.1993 1.1339 1.1114 1.0880 1.0403 1.0020
0.9552 0.9290 0.9075 0.8870 0.8383 0.7944
0.7654 0.6971 0.6476 0.6083 0.5428 0.4727
0.4156 0.3502 0.2744 0.2061 0.1173 0.0406
-0.0164 -0.0922 -0.1614 -0.2035 -0.2568 -0.3194
-0.3596 -0.4064 -0.4354 -0.4663 -0.5280 -0.5495
-0.5682 -0.6065 -0.6280 -0.6533 -0.6729 -0.6944
-0.7010 -0.7038 -0.7262 -0.7328 -0.7197 -0.7225
-0.7103 -0.6870 -0.7019 -0.6888 -0.6533 -0.6374
-0.6178 -0.5860 -0.5383 -0.4840 -0.4419 -0.4017
-0.3428 -0.2764 -0.2259 -0.1586 -0.1043 -0.0548
0.0200 0.0612 0.1192 0.1631 0.2127 0.2838
0.3109 0.3763 0.4343 0.4642 0.5288 0.5727
0.5933 0.6401 0.6840 0.7027 0.7289 0.7429
0.7579 0.7719 0.7738 0.7813 0.7813 0.7888
0.8009 0.8037 0.8084 0.7953 0.7906 0.8149
0.8262 0.8523 0.8561 0.8710 0.9178 0.9197
0.9636 1.0001 1.0272 1.0917 1.1348 1.1881
1.2461 1.2975 1.3452 1.3919 1.4452 1.4995
1.5556 1.6024 1.6510 1.6968 1.7501 1.8184
1.8670 1.9194 1.9811 2.0400 2.0961 2.1457
2.1868 2.2280 2.2878 2.3224 2.3720 2.4234
2.4524 2.4936 2.5291 2.5712 2.6067 2.6320
2.6385 2.6460 2.6582 2.6619 2.6666 2.6498
2.6236 2.6208 2.6067 2.5693 2.5581 2.5347
2.4983 2.4777 2.4290 2.3870 2.3477 2.2897
2.2495 2.2037 2.1532 2.1036 2.0587 2.0260
1.9802 1.9128 1.8558 1.8081 1.7417 1.6846
1.6369 1.5808 1.5210 1.4845 1.4349 1.3573
1.3227 1.2778 1.2348 1.2105 1.1712 1.1348
1.1058 1.0889 1.0468 0.9982 0.9552 0.9131
0.8607 0.7813 0.7373 0.6821 0.5923 0.5213
0.4577 0.4006 0.3342 0.2650 0.2014 0.1313
0.0555 0.0004 -0.0426 -0.0941 -0.1334 -0.1764
-0.2026 -0.2259 -0.2736 -0.2877 -0.2980 -0.2998
-0.2905 -0.3101 -0.3082 -0.3017 -0.2839 -0.2634
-0.2605 -0.2297 -0.2138 -0.2091 -0.2100 -0.2091
-0.1942 -0.2035 -0.2054 -0.1998 -0.2119 -0.2278
-0.2362 -0.2334 -0.2428 -0.2531 -0.2521 -0.2671
-0.2577 -0.2418 -0.2400 -0.2372 -0.2503 -0.2325
-0.2157 -0.1904 -0.1539 -0.1474 -0.1119 -0.0763
-0.0698 -0.0408 0.0004 0.0209 0.0434 0.0714
0.0901 0.1070 0.1154 0.1350 0.1528 0.1509
0.1519 0.1556 0.1500 0.1537 0.1481 0.1416
0.1444 0.1416 0.1621 0.1762 0.1911 0.2126
0.2229 0.2342 0.2351 0.2500 0.2744 0.2903
0.2893 0.3080 0.3445 0.3632 0.3763 0.3660
0.3950 0.4193 0.4128 0.4427 0.4577 0.4773
0.5016 0.5166 0.5334 0.5512 0.5689 0.5727
0.5717 0.5671 0.5587 0.5568 0.5409 0.5222
0.5007 0.4577 0.4352 0.4062 0.3576 0.3174
0.2931 0.2528 0.1790 0.1313 0.0798 0.0219
-0.0249 -0.0838 -0.1362 -0.1820 -0.2381 -0.2877
-0.3382 -0.3924 -0.4439 -0.5009 -0.5589 -0.6150
-0.6795 -0.7553 -0.8179 -0.8946 -0.9835 -1.0499
-1.1396 -1.2369 -1.3267 -1.4277 -1.5016 -1.5736
-1.6643 -1.7400 -1.8307 -1.9243 -2.0047 -2.0879
-2.1693 -2.2478 -2.3189 -2.3919 -2.4592 -2.5218
-2.5817 -2.6331 -2.6724 -2.7126 -2.7584 -2.7940
-2.8230 -2.8407 -2.8669 -2.9043 -2.9268 -2.9474
-2.9511 -2.9548 -2.9782 -2.9502 -2.9436 -2.9548
-2.9193 -2.9352 -2.9474 -2.9296 -2.9333 -2.9259
-2.9333 -2.9287 -2.9240 -2.9324 -2.9128 -2.9118
-2.9146 -2.8913 -2.8791 -2.8651 -2.8520 -2.8267
-2.7837 -2.7818 -2.7528 -2.7098 -2.6911 -2.6378
-2.5976 -2.5490 -2.4947 -2.4583 -2.4031 -2.3517
-2.3040 -2.2525 -2.2020 -2.1431 -2.0992 -2.0487
-1.9841 -1.9458 -1.8897 -1.8392 -1.7952 -1.7204
-1.6680 -1.6016 -1.5259 -1.4567 -1.3650 -1.3043
-1.2547 -1.1668 -1.0948 -1.0368 -0.9610 -0.8937
-0.8301 -0.7637 -0.6973 -0.6272 -0.5617 -0.4963
-0.4252 -0.3560 -0.2915 -0.2288 -0.1652 -0.1044
-0.0567 0.0041 0.0686 0.1032 0.1528 0.2098
0.2547 0.3164 0.3585 0.3697 0.4202 0.4707
0.4857 0.4960 0.5006 0.5109 0.5165 0.5278
0.5306 0.5165 0.5016 0.4838 0.4623 0.4417
0.4258 0.3865 0.3491 0.3258 0.2837 0.2481
0.2220 0.1780 0.1322 0.0901 0.0452 0.0097
-0.0137 -0.0539 -0.0913 -0.1297 -0.1764 -0.1942
-0.2269 -0.2466 -0.2653 -0.2952 -0.2859 -0.2971
-0.3176 -0.3130 -0.3083 -0.2961 -0.2737 -0.2671
-0.2475 -0.2316 -0.2269 -0.1933 -0.1774 -0.1680
-0.1297 -0.1054 -0.0988 -0.0680 -0.0306 -0.0062
0.0190 0.0256 0.0480 0.0742 0.0798 0.0985
0.0929 0.0938 0.1219 0.1107 0.1069 0.1163
0.0948 0.0835 0.0658 0.0452 0.0405 0.0190
-0.0147 -0.0446 -0.0829 -0.1381 -0.1774 -0.2008
-0.2494 -0.2877 -0.2990 -0.3448 -0.3925 -0.4093
-0.4420 -0.4729 -0.5112 -0.5440 -0.5692 -0.6076
-0.6272 -0.6684 -0.6768 -0.6936 -0.7179 -0.7207
-0.7422 -0.7263 -0.7385 -0.7394 -0.7291 -0.7226
-0.6945 -0.6824 -0.6440 -0.6132 -0.5842 -0.5702
-0.5571 -0.4972 -0.4729 -0.4579 -0.4084 -0.3850
-0.3663 -0.3495 -0.3186 -0.2784 -0.2634 -0.2400
-0.2073 -0.1521 -0.1138 -0.0904 -0.0502 -0.0156
0.0293 0.0770 0.1331 0.1901 0.2229 0.2855
0.3594 0.4062 0.4754 0.5296 0.5941 0.6661
0.7092 0.7924 0.8457 0.9121 1.0037 1.0533
1.1365 1.2029 1.2675 1.3226 1.3703 1.4461
1.4797 1.5302 1.5901 1.6387 1.6846 1.7248
1.7715 1.8099 1.8856 1.9221 1.9567 2.0324
2.0698 2.1241 2.1671 2.1933 2.2503 2.3177
2.3513 2.3785 2.4280 2.4570 2.5000 2.5402
2.5505 2.5692 2.6029 2.6244 2.6263 2.6384
2.6609 2.6758 2.6955 2.7020 2.7039 2.7320
2.7563 2.7815 2.7974 2.8068 2.8348 2.8488
2.8704 2.8919 2.8881 2.8834 2.8993 2.9124
2.9022 2.9078 2.9012 2.8825 2.8675 2.8526
2.8264 2.7890 2.7843 2.7572 2.7086 2.6843
2.6459 2.5889 2.5486 2.5112 2.4869 2.4476
2.3943 2.3906 2.3663 2.3186 2.3074 2.2877
2.2597 2.2438 2.2120 2.1821 2.1605 2.1035
2.0698 2.0483 2.0025 1.9688 1.9445 1.9155
1.8716 1.8332 1.8024 1.7650 1.7304 1.7051
1.6640 1.6387 1.6237 1.5742 1.5368 1.5199
1.4984 1.4648 1.4171 1.3853 1.3638 1.3198
1.2843 1.2534 1.2095 1.1936 1.1524 1.1094
1.0739 1.0290 1.0018 0.9654 0.9383 0.9205
0.8915 0.8719 0.8700 0.8447 0.8316 0.8316
0.7980 0.7718 0.7437 0.7400 0.7325 0.6914
0.6474 0.6240 0.5950 0.5492 0.5165 0.4594
0.4239 0.3874 0.3220 0.2761 0.2051 0.1377
0.0863 0.0255 -0.0287 -0.0951 -0.1774 -0.2373
-0.2775 -0.3607 -0.4374 -0.5019 -0.5898 -0.6385
-0.7254 -0.8292 -0.8956 -0.9854 -1.0789 -1.1715
-1.2622 -1.3567 -1.4558 -1.5578 -1.6541 -1.7560
-1.8598 -1.9356 -2.0356 -2.1198 -2.1778 -2.2825
-2.3620 -2.4275 -2.5032 -2.5734 -2.6416 -2.6931
-2.7698 -2.8231 -2.8567 -2.9269 -2.9830 -3.0363
-3.0728 -3.1036 -3.1504 -3.1878 -3.2271 -3.2243
-3.2542 -3.2860 -3.2888 -3.3346 -3.3412 -3.3580
-3.3730 -3.3683 -3.3823 -3.3664 -3.3552 -3.3533
-3.3290 -3.3038 -3.3009 -3.2635 -3.2130 -3.1840
-3.1485 -3.1074 -3.0662 -3.0372 -2.9895 -2.9418
-2.8960 -2.8343 -2.7772 -2.7221 -2.6688 -2.6239
-2.5556 -2.4808 -2.4368 -2.3891 -2.3227 -2.2760
-2.2302 -2.1647 -2.1217 -2.0646 -1.9945 -1.9468
-1.8972 -1.8271 -1.7570 -1.6952 -1.6270 -1.5746
-1.4989 -1.4231 -1.3642 -1.2828 -1.2099 -1.1641
-1.0977 -1.0051 -0.9462 -0.8685 -0.8003 -0.7255
-0.6413 -0.5983 -0.5300 -0.4617 -0.3851 -0.3084
-0.2420 -0.1793 -0.1054 -0.0306 0.0236 0.1106
0.1695 0.2200 0.3060 0.3659 0.4229 0.4847
0.5286 0.5735 0.6277 0.6698 0.7063 0.7325
0.7671 0.7914 0.8120 0.8625 0.8737 0.8896
0.9279 0.9504 0.9850 0.9971 1.0168 1.0589
1.0878 1.1225 1.1496 1.1907 1.2094 1.2309
1.2739 1.2637 1.2814 1.3057 1.3104 1.3216
1.3273 1.3347 1.3441 1.3749 1.3852 1.4030
1.4395 1.4283 1.4124 1.4320 1.4498 1.4460
1.4507 1.4572 1.4460 1.4647 1.4516 1.4180
1.4254 1.4198 1.4142 1.4114 1.3899 1.3824
1.3936 1.3665 1.3338 1.3244 1.3226 1.3216
1.2983 1.3076 1.3188 1.2889 1.2674 1.2796
1.2711 1.2608 1.3170 1.2954 1.2534 1.2758
1.2833 1.3011 1.3029 1.3263 1.3516 1.3497
1.3834 1.3936 1.4030 1.4142 1.4245 1.4563
1.4479 1.4516 1.4656 1.4526 1.4357 1.4142
1.4095 1.3964 1.3759 1.3441 1.3048 1.2721
1.2216 1.1888 1.1486 1.0878 1.0486 1.0009
0.9457 0.8784 0.8082 0.7755 0.7212 0.6539
0.6221 0.5688 0.4931 0.4369 0.3687 0.3070
0.2845 0.2153 0.1414 0.0844 -0.0157 -0.0849
-0.1663 -0.2457 -0.2916 -0.3823 -0.4580 -0.5357
-0.6236 -0.6890 -0.7629 -0.8153 -0.8742 -0.9443
-1.0135 -1.0640 -1.0996 -1.1538 -1.2015 -1.2408
-1.2688 -1.3147 -1.3371 -1.3511 -1.3885 -1.3979
-1.4072 -1.4297 -1.4400 -1.4512 -1.4699 -1.4708
-1.4886 -1.4980 -1.4933 -1.5036 -1.4980 -1.4895
-1.4662 -1.4549 -1.4512 -1.4222 -1.4091 -1.4026
-1.3680 -1.3231 -1.2913 -1.2483 -1.1884 -1.1342
-1.0799 -1.0135 -0.9518 -0.8957 -0.8106 -0.7405
-0.6853 -0.5993 -0.5142 -0.4384 -0.3655 -0.2869
-0.2168 -0.1429 -0.0531 0.0236 0.0909 0.1498
0.2303 0.3163 0.3630 0.4294 0.5080 0.5632
0.6109 0.6670 0.7381 0.7764 0.8222 0.8680
0.8802 0.9185 0.9457 0.9812 0.9934 0.9812
1.0074 1.0018 0.9868 0.9859 0.9662 0.9513
0.9494 0.9326 0.9073 0.8802 0.8512 0.8484
0.8185 0.7698 0.7493 0.7324 0.7193 0.6950
0.6857 0.6950 0.6819 0.6735 0.6819 0.6819
0.6866 0.6969 0.6988 0.7212 0.7296 0.7259
0.7493 0.7745 0.7783 0.7792 0.7960 0.8044
0.8119 0.8306 0.8549 0.8671 0.8905 0.9176
0.9279 0.9513 0.9672 0.9840 0.9952 1.0083
1.0046 0.9859 0.9887 0.9756 0.9606 0.9391
0.9354 0.9241 0.8877 0.8662 0.8241 0.7942
0.7633 0.6894 0.6501 0.6258 0.5669 0.5089
0.4444 0.4004 0.3649 0.3004 0.2480 0.2040
0.1638 0.1049 0.0507 0.0264 -0.0082 -0.0419
-0.0784 -0.1074 -0.1373 -0.1738 -0.1953 -0.2196
-0.2476 -0.2729 -0.2935 -0.3215 -0.3253 -0.3290
-0.3711 -0.3823 -0.3870 -0.4132 -0.4085 -0.4272
-0.4543 -0.4394 -0.4534 -0.4740 -0.4721 -0.4899
-0.5067 -0.5179 -0.5394 -0.5572 -0.5955 -0.6358
-0.6554 -0.6881 -0.7358 -0.7788 -0.8134 -0.8808
-0.9481 -0.9883 -1.0201 -1.0734 -1.1398 -1.1800
-1.2333 -1.2866 -1.3287 -1.3820 -1.4522 -1.4868
-1.5261 -1.5878 -1.6093 -1.6486 -1.6757 -1.6953
-1.7215 -1.7234 -1.7486 -1.7617 -1.7645 -1.7701
-1.7645 -1.7608 -1.7383 -1.7411 -1.7514 -1.7421
-1.7084 -1.6589 -1.6579 -1.6392 -1.5915 -1.5522
-1.5242 -1.5064 -1.4615 -1.4223 -1.3783 -1.3325
-1.3119 -1.2661 -1.2315 -1.2006 -1.1333 -1.0987
-1.0669 -1.0117 -0.9593 -0.9154 -0.8630 -0.7966
-0.7405 -0.6816 -0.6395 -0.5946 -0.5404 -0.4889
-0.4366 -0.3889 -0.3412 -0.2972 -0.2458 -0.2262
-0.2028 -0.1523 -0.1252 -0.0980 -0.0709 -0.0457
-0.0326 -0.0270 -0.0139 0.0011 0.0142 0.0104
0.0329 0.0544 0.0572 0.0619 0.0609 0.0806
0.0918 0.0927 0.1086 0.1199 0.1339 0.1498
0.1517 0.1760 0.1853 0.2040 0.2480 0.2508
0.2545 0.2620 0.2723 0.2985 0.2854 0.2779
0.2947 0.2732 0.2685 0.2751 0.2573 0.2480
0.2386 0.2283 0.2237 0.2115 0.2162 0.2237
0.2003 0.2040 0.2031 0.1891 0.1919 0.1937
0.1928 0.1732 0.1647 0.1638 0.1619 0.1348
0.1068 0.0965 0.0656 0.0413 -0.0027 -0.0195
-0.0120 -0.0457 -0.0466 -0.0560 -0.0737 -0.0560
-0.0691 -0.0728 -0.0363 -0.0130 0.0039 0.0347
0.0656 0.0787 0.1021 0.1442 0.1937 0.2274
0.2414 0.2695 0.3106 0.3387 0.3536 0.3854
0.4126 0.4359 0.4733 0.5033 0.5276 0.5444
0.5687 0.6089 0.6454 0.6781 0.7099 0.7651
0.8222 0.8371 0.8745 0.9250 0.9493 1.0017
1.0419 1.0653 1.1074 1.1467 1.1794 1.2112
1.2205 1.2402 1.2739 1.2860 1.3150 1.3150
1.3028 1.3159 1.2972 1.2982 1.3150 1.3122
1.3066 1.2851 1.2710 1.2869 1.2841 1.2421
1.2402 1.2355 1.2028 1.1841 1.1439 1.1233
1.0962 1.0644 1.0344 0.9830 0.9531 0.9213
0.8717 0.8474 0.8568 0.8109 0.7688 0.7464
0.7193 0.7109 0.6566 0.6267 0.6127 0.5930
0.5650 0.5266 0.5276 0.4967 0.4799 0.4677
0.4322 0.4144 0.4013 0.4060 0.3761 0.3555
0.3536 0.3461 0.3658 0.3527 0.3461 0.3630
0.3461 0.3433 0.3517 0.3527 0.3714 0.3892
0.3938 0.4172 0.4556 0.4649 0.4920 0.5219
0.5444 0.5762 0.5902 0.6267 0.6538 0.6716
0.6837 0.6940 0.7165 0.7258 0.7370 0.7427
0.7511 0.7529 0.7473 0.7455 0.7324 0.7296
0.7174 0.6940 0.6847 0.6763 0.6585 0.6286
0.6229 0.6080 0.5921 0.5706 0.5425 0.5369
0.5042 0.4836 0.4780 0.4565 0.4312 0.4004
0.3826 0.3817 0.3611 0.3199 0.2984 0.2966
0.2676 0.2685 0.2816 0.2610 0.2545 0.2376
0.2330 0.2404 0.2358 0.2395 0.2479 0.2461
0.2461 0.2461 0.2479 0.2638 0.2666 0.2760
0.2938 0.3237 0.3499 0.3723 0.3910 0.4116
0.4537 0.4742 0.4958 0.5088 0.5163 0.5406
0.5565 0.5603 0.5528 0.5565 0.5650 0.5612
0.5491 0.5350 0.5294 0.5406 0.5369 0.5275
0.5313 0.5126 0.4976 0.4957 0.4986 0.4920
0.4686 0.4611 0.4733 0.4621 0.4368 0.4293
0.4106 0.4134 0.4228 0.3966 0.3863 0.3676
0.3302 0.3143 0.2994 0.2816 0.2507 0.2030
0.1815 0.1544 0.1114 0.0833 0.0581 0.0319
-0.0018 -0.0476 -0.0775 -0.0934 -0.1205 -0.1495
-0.1720 -0.1860 -0.1982 -0.2038 -0.2309 -0.2524
-0.2627 -0.3029 -0.3207 -0.3515 -0.3787 -0.3805
-0.4198 -0.4581 -0.4871 -0.5404 -0.5554 -0.5779
-0.6237 -0.6405 -0.6957 -0.7219 -0.7312 -0.7780
-0.7967 -0.8173 -0.8537 -0.8762 -0.9145 -0.9454
-0.9678 -1.0352 -1.0642 -1.0726 -1.1296 -1.1633
-1.1988 -1.2465 -1.2811 -1.3382 -1.3709 -1.4036
-1.4420 -1.4616 -1.4878 -1.5224 -1.5617 -1.5757
-1.5869 -1.5888 -1.6038 -1.6318 -1.6309 -1.6496
-1.6617 -1.6776 -1.6945 -1.6870 -1.7066 -1.7169
-1.7394 -1.7581 -1.7693 -1.7917 -1.7945 -1.8179
-1.8422 -1.8535 -1.8591 -1.8862 -1.9021 -1.9068
-1.9488 -1.9554 -1.9479 -1.9704 -1.9778 -1.9694
-1.9825 -1.9919 -1.9834 -1.9956 -2.0106 -2.0078
-2.0087 -2.0012 -2.0022 -2.0143 -2.0171 -2.0078
-1.9984 -2.0050 -1.9909 -1.9704 -1.9479 -1.9180
-1.8927 -1.8525 -1.8226 -1.7927 -1.7412 -1.6954
-1.6702 -1.6253 -1.5729 -1.5533 -1.5112 -1.4672
-1.4345 -1.3784 -1.3391 -1.3017 -1.2484 -1.1960
-1.1380 -1.0763 -1.0305 -0.9809 -0.9351 -0.9024
-0.8472 -0.7902 -0.7443 -0.6910 -0.6508 -0.6331
-0.5760 -0.5274 -0.5059 -0.4507 -0.4180 -0.3824
-0.3431 -0.3301 -0.2917 -0.2618 -0.2421 -0.2057
-0.1945 -0.1729 -0.1346 -0.1271 -0.1094 -0.0860
-0.0841 -0.0598 -0.0448 -0.0345 -0.0065 -0.0037
-0.0065 0.0019 -0.0243 -0.0448 -0.0289 -0.0542
-0.0738 -0.0729 -0.0953 -0.1047 -0.1178 -0.1412
-0.1533 -0.1758 -0.2066 -0.2076 -0.2319 -0.2702
-0.2870 -0.3188 -0.3413 -0.3544 -0.3852 -0.4273
-0.4329 -0.4413 -0.4816 -0.4909 -0.4975 -0.5003
-0.5330 -0.5601 -0.5704 -0.6106 -0.6172 -0.6321
-0.6536 -0.6592 -0.6836 -0.6892 -0.6929 -0.7303
-0.7303 -0.7359 -0.7631 -0.7378 -0.7556 -0.7733
-0.7565 -0.7790 -0.7892 -0.7911 -0.7949 -0.7808
-0.7762 -0.7874 -0.7696 -0.7593 -0.7528 -0.7303
-0.7238 -0.6873 -0.6845 -0.6873 -0.6452 -0.6377
-0.6396 -0.6349 -0.6237 -0.6172 -0.6312 -0.6200
-0.6060 -0.6041 -0.6106 -0.6293 -0.6256 -0.6228
-0.6349 -0.6303 -0.6331 -0.6312 -0.6256 -0.6434
-0.6406 -0.6181 -0.6162 -0.6172 -0.6041 -0.5826
-0.5564 -0.5386 -0.5134 -0.4750 -0.4386 -0.4021
-0.3740 -0.3553 -0.3067 -0.2618 -0.2506 -0.2094
-0.1720 -0.1384 -0.1010 -0.0823 -0.0187 0.0131
0.0533 0.1263 0.1497 0.1936 0.2245 0.2740
0.3358 0.3620 0.4012 0.4349 0.4723 0.5135
0.5368 0.5658 0.6070 0.6098 0.6182 0.6593
0.6790 0.7042 0.7379 0.7688 0.7921 0.8006
0.8277 0.8501 0.8866 0.9380 0.9539 0.9801
1.0138 1.0418 1.0755 1.1176 1.1597 1.1784
1.2092 1.2401 1.2775 1.3009 1.3112 1.3355
1.3476 1.3701 1.3794 1.3785 1.3953 1.4065
1.4103 1.4271 1.4468 1.4617 1.4786 1.4916
1.5066 1.5225 1.5300 1.5440 1.5796 1.6020
1.6085 1.6235 1.6441 1.6534 1.6618 1.6721
1.6777 1.6993 1.6918 1.6899 1.7067 1.6908
1.6936 1.6964 1.6768 1.6749 1.6693 1.6394
1.6347 1.6263 1.5954 1.5908 1.5730 1.5618
1.5496 1.5290 1.5206 1.4870 1.4776 1.4552
1.4337 1.4411 1.4056 1.3916 1.3860 1.3645
1.3579 1.3401 1.3383 1.3373 1.3252 1.3252
1.3158 1.3093 1.3130 1.3242 1.3345 1.3532
1.3682 1.3785 1.3906 1.3934 1.4047 1.4140
1.4308 1.4421 1.4561 1.4636 1.4748 1.5075
1.5253 1.5552 1.5889 1.6067 1.6459 1.6768
1.7002 1.7554 1.7806 1.8021 1.8545 1.8844
1.9078 1.9256 1.9443 1.9704 1.9789 2.0060
2.0322 2.0322 2.0490 2.0621 2.0630 2.0649
2.0668 2.0593 2.0555 2.0527 2.0443 2.0359
2.0032 2.0013 2.0060 1.9948 1.9817 1.9676
1.9723 1.9798 1.9770 1.9620 1.9658 1.9536
1.9480 1.9667 1.9592 1.9592 1.9620 1.9555
1.9564 1.9686 1.9658 1.9517 1.9517 1.9517
1.9442 1.9452 1.9414 1.9330 1.9424 1.9330
1.9349 1.9293 1.9078 1.9293 1.9162 1.8891
1.8825 1.8591 1.8404 1.7984 1.7638 1.7235
1.6758 1.6422 1.5842 1.5337 1.4757 1.4018
1.3252 1.2634 1.1905 1.1054 1.0390 0.9529
0.8716 0.7902 0.7173 0.6453 0.5508 0.4685
0.3862 0.3067 0.2198 0.1412 0.0814 0.0093
-0.0571 -0.1263 -0.1842 -0.2282 -0.3077 -0.3685
-0.4236 -0.4891 -0.5153 -0.5779 -0.6378 -0.6640
-0.7042 -0.7369 -0.7790 -0.7977 -0.8248 -0.8660
-0.8651 -0.8800 -0.8978 -0.9090 -0.9146 -0.9025
-0.9090 -0.9174 -0.9286 -0.9277 -0.8987 -0.8781
-0.8781 -0.8716 -0.8520 -0.8473 -0.8220 -0.8314
-0.8417 -0.8089 -0.8192 -0.8183 -0.8071 -0.8211
-0.8286 -0.8164 -0.8136 -0.8136 -0.8136 -0.8192
-0.8155 -0.8305 -0.8398 -0.8370 -0.8454 -0.8604
-0.8772 -0.8810 -0.8819 -0.8828 -0.8810 -0.8959
-0.8959 -0.9006 -0.9090 -0.8931 -0.8978 -0.9034
-0.9015 -0.9100 -0.9034 -0.9043 -0.9287 -0.9268
-0.9315 -0.9371 -0.9071 -0.9212 -0.9268 -0.9053
-0.9165 -0.9034 -0.8978 -0.9109 -0.9118 -0.9174
-0.9025 -0.9128 -0.9343 -0.9352 -0.9474 -0.9548
-0.9717 -1.0082 -1.0530 -1.0596 -1.0680 -1.1082
-1.1288 -1.1494 -1.1709 -1.2083 -1.2363 -1.2438
-1.2737 -1.2915 -1.3018 -1.3299 -1.3579 -1.3757
-1.3888 -1.4084 -1.4271 -1.4421 -1.4458 -1.4439
-1.4832 -1.4832 -1.4692 -1.4804 -1.4664 -1.4683
-1.4561 -1.4524 -1.4655 -1.4673 -1.4701 -1.4552
-1.4430 -1.4570 -1.4514 -1.4374 -1.4514 -1.4290
-1.4159 -1.4411 -1.4271 -1.4000 -1.3878 -1.3785
-1.3719 -1.3654 -1.3448 -1.3084 -1.2915 -1.2803
-1.2550 -1.2392 -1.2064 -1.1830 -1.1681 -1.1194
-1.0923 -1.0802 -1.0531 -1.0428 -1.0185 -0.9904
-0.9651 -0.9296 -0.9399 -0.9305 -0.9146 -0.9380
-0.9305 -0.9268 -0.9062 -0.9090 -0.9511 -0.9371
-0.9436 -0.9614 -0.9567 -0.9651 -0.9670 -0.9717
-0.9848 -0.9951 -0.9923 -0.9876 -0.9764 -0.9885
-0.9736 -0.9315 -0.9436 -0.9371 -0.9193 -0.8903
-0.8698 -0.8688 -0.8361 -0.8230 -0.8043 -0.7791
-0.7734 -0.7547 -0.7360 -0.7136 -0.6986 -0.6893
-0.6706 -0.6640 -0.6565 -0.6332 -0.6219 -0.6182
-0.5958 -0.5873 -0.5780 -0.5518 -0.5406 -0.5378
-0.5359 -0.5443 -0.5574 -0.5574 -0.5602 -0.5743
-0.6098 -0.6266 -0.6500 -0.6977 -0.7220 -0.7529
-0.7763 -0.8239 -0.8679 -0.8969 -0.9193 -0.9343
-0.9857 -1.0072 -1.0166 -1.0381 -1.0783 -1.1082
-1.1167 -1.1522 -1.1737 -1.2074 -1.2495 -1.2775
-1.3121 -1.3355 -1.3598 -1.3851 -1.4122 -1.4440
-1.4655 -1.5029 -1.5356 -1.5506 -1.5777 -1.5880
-1.6095 -1.6366 -1.6273 -1.6469 -1.6694 -1.6619
-1.6731 -1.7030 -1.7255 -1.7301 -1.7339 -1.7582
-1.7741 -1.7769 -1.7806 -1.7825 -1.8022 -1.8078
-1.7947 -1.8040 -1.7975 -1.7919 -1.7816 -1.7619
-1.7629 -1.7451 -1.7143 -1.7086 -1.7180 -1.6993
-1.6731 -1.6544 -1.6301 -1.6245 -1.5777 -1.5291
-1.5412 -1.5197 -1.4767 -1.4431 -1.4075 -1.3907
-1.3626 -1.3140 -1.2906 -1.2532 -1.1859 -1.1513
-1.0877 -1.0306 -0.9960 -0.9315 -0.8848 -0.8324
-0.7838 -0.7323 -0.7005 -0.6622 -0.6061 -0.5724
-0.5200 -0.4798 -0.4209 -0.3648 -0.3311 -0.2694
-0.2170 -0.1815 -0.1516 -0.1114 -0.0637 -0.0263
-0.0010 0.0458 0.0897 0.1056 0.1505 0.1795
0.2122 0.2777 0.2936 0.3319 0.3983 0.4170
0.4497 0.4890 0.5292 0.5601 0.5853 0.6340
0.6620 0.6957 0.7191 0.7481 0.7958 0.8229
0.8444 0.8734 0.9070 0.9463 0.9893 1.0006
1.0398 1.0838 1.1109 1.1474 1.1680 1.2110
1.2390 1.2671 1.3101 1.3410 1.3961 1.4251
1.4476 1.4971 1.5402 1.5542 1.5579 1.6047
1.6421 1.6440 1.6711 1.6954 1.7104 1.7394
1.7478 1.7655 1.7964 1.8086 1.8226 1.8366
1.8488 1.8553 1.8563 1.8731 1.8918 1.8909
1.9152 1.9395 1.9273 1.9414 1.9526 1.9629
1.9834 1.9928 2.0171 2.0068 1.9993 2.0236
2.0367 2.0461 2.0592 2.0863 2.0872 2.0891
2.1134 2.1190 2.1181 2.1321 2.1443 2.1368
2.1462 2.1527 2.1602 2.1452 2.1293 2.1377
2.1078 2.0891 2.0723 2.0508 2.0358 1.9975
1.9610 1.9086 1.8880 1.8619 1.7992 1.7683
1.7300 1.6748 1.6234 1.5841 1.5504 1.4999
1.4569 1.4064 1.3456 1.3185 1.2755 1.2156
1.1829 1.1418 1.1053 1.0716 1.0314 0.9846
0.9510 0.9267 0.8995 0.8911 0.8640 0.8397
0.8219 0.8042 0.7957 0.7649 0.7490 0.7303
0.6985 0.6788 0.6620 0.6340 0.6078 0.5919
0.5638 0.5367 0.5077 0.4703 0.4301 0.4048
0.3805 0.3263 0.2786 0.2571 0.2159 0.1486
0.0981 0.0438 -0.0216 -0.0656 -0.1292 -0.1853
-0.2386 -0.3031 -0.3424 -0.4050 -0.4658 -0.5107
-0.5650 -0.5986 -0.6285 -0.6678 -0.6819 -0.7127
-0.7660 -0.7791 -0.7969 -0.8128 -0.8156 -0.8474
-0.8549 -0.8567 -0.8867 -0.9007 -0.9091 -0.9222
-0.9362 -0.9633 -0.9727 -0.9914 -1.0269 -1.0447
-1.0615 -1.0756 -1.1130 -1.1532 -1.1560 -1.1831
-1.2243 -1.2402 -1.2626 -1.2692 -1.2822 -1.2963
-1.3000 -1.3281 -1.3337 -1.3337 -1.3281 -1.3346
-1.3627 -1.3533 -1.3393 -1.3197 -1.3140 -1.3309
-1.3215 -1.3066 -1.2897 -1.2794 -1.2729 -1.2589
-1.2626 -1.2570 -1.2336 -1.2168 -1.2018 -1.1887
-1.1719 -1.1485 -1.1289 -1.1158 -1.0812 -1.0344
-1.0045 -0.9596 -0.9101 -0.8885 -0.8511 -0.8034
-0.7604 -0.6968 -0.6314 -0.6005 -0.5566 -0.4780
-0.4322 -0.3929 -0.3461 -0.3069 -0.2433 -0.1984
-0.1619 -0.1245 -0.0834 -0.0226 -0.0085 0.0270
0.0681 0.0803 0.1261 0.1467 0.1617 0.1794
0.2056 0.2421 0.2701 0.3001 0.3085 0.3188
0.3403 0.3440 0.3412 0.3515 0.3655 0.3805
0.3842 0.3739 0.3693 0.3524 0.3421 0.3403
0.3234 0.3253 0.2982 0.2795 0.2636 0.2309
0.2411 0.2056 0.1850 0.1991 0.1906 0.1682
0.1476 0.1532 0.1214 0.0953 0.0934 0.0766
0.0597 0.0560 0.0419 0.0139 0.0073 0.0139
0.0111 0.0064 0.0027 -0.0076 0.0073 -0.0001
-0.0001 0.0289 0.0279 0.0588 0.0775 0.0709
0.0812 0.1027 0.1327 0.1532 0.1747 0.1925
0.2159 0.2383 0.2785 0.3057 0.3103 0.3552
0.4076 0.4403 0.4665 0.4964 0.5245 0.5554
0.5862 0.6236 0.6582 0.6751 0.7050 0.7396
0.7789 0.8069 0.8238 0.8565 0.8902 0.9210
0.9509 0.9893 1.0127 1.0314 1.0697 1.1109
1.1520 1.1763 1.1894 1.2165 1.2343 1.2624
1.2932 1.3091 1.3503 1.3540 1.3559 1.3783
1.3821 1.3961 1.3980 1.4110 1.4167 1.4148
1.4110 1.3942 1.3839 1.3587 1.3418 1.3297
1.3082 1.2998 1.2810 1.2623 1.2464 1.2287
1.2118 1.1838 1.1539 1.1211 1.0978 1.0744
1.0360 0.9977 0.9593 0.9294 0.9088 0.8668
0.8256 0.8078 0.7845 0.7620 0.7396 0.7003
0.6694 0.6526 0.6386 0.6040 0.5759 0.5638
0.5226 0.5011 0.4749 0.4450 0.4328 0.3936
0.3833 0.3777 0.3468 0.3169 0.2860 0.2776
0.2654 0.2421 0.2252 0.2056 0.1682 0.1411
0.1429 0.1242 0.0952 0.0784 0.0597 0.0503
0.0429 0.0195 0.0148 0.0288 0.0036 -0.0161
-0.0189 -0.0310 -0.0366 -0.0376 -0.0301 -0.0441
-0.0394 -0.0338 -0.0591 -0.0376 -0.0310 -0.0273
-0.0076 -0.0105 0.0232 0.0363 0.0410 0.0812
0.0896 0.0952 0.1280 0.1485 0.1654 0.1944
0.1962 0.2093 0.2505 0.2692 0.3075 0.3402
0.3786 0.4197 0.4356 0.4833 0.5207 0.5516
0.5853 0.6301 0.6806 0.7040 0.7527 0.7957
0.8256 0.8714 0.9126 0.9378 0.9827 1.0117
1.0136 1.0641 1.0884 1.1146 1.1604 1.1744
1.1922 1.1987 1.2221 1.2446 1.2399 1.2567
1.2876 1.2848 1.2857 1.2951 1.2763 1.2792
1.2782 1.2633 1.2539 1.2483 1.2305 1.1903
1.1772 1.1529 1.1099 1.0659 1.0276 0.9921
0.9528 0.9257 0.8723 0.8265 0.7910 0.7461
0.7106 0.6825 0.6573 0.6236 0.5937 0.5656
0.5254 0.4983 0.4917 0.4609 0.4309 0.4038
0.3599 0.3327 0.3056 0.2654 0.2327 0.1934
0.1551 0.1214 0.0849 0.0550 0.0251 0.0008
-0.0170 -0.0310 -0.0329 -0.0432 -0.0666 -0.0731
-0.0853 -0.0900 -0.0844 -0.1021 -0.0890 -0.0769
-0.0890 -0.0974 -0.1115 -0.1115 -0.1105 -0.1068
-0.0881 -0.0974 -0.1059 -0.0928 -0.0881 -0.0675
-0.0619 -0.0516 -0.0086 0.0092 0.0185 0.0428
0.0606 0.0531 0.0606 0.0802 0.0905 0.1036
0.0896 0.0868 0.1064 0.1130 0.1036 0.0952
0.1036 0.0877 0.0793 0.0625 0.0353 0.0344
0.0223 0.0176 0.0035 -0.0152 -0.0385 -0.0582
-0.0666 -0.0900 -0.0844 -0.1152 -0.1395 -0.1367
-0.1657 -0.1667 -0.1854 -0.1975 -0.2022 -0.2368
-0.2518 -0.2714 -0.3135 -0.3406 -0.3668 -0.4061
-0.4435 -0.4856 -0.5127 -0.5342 -0.5847 -0.6548
-0.6997 -0.7390 -0.8045 -0.8624 -0.9251 -0.9878
-1.0467 -1.1131 -1.1813 -1.2374 -1.2833 -1.3422
-1.4011 -1.4563 -1.5180 -1.5666 -1.6199 -1.6891
-1.7424 -1.8004 -1.8631 -1.9070 -1.9529 -2.0174
-2.1025 -2.1567 -2.1848 -2.2400 -2.3008 -2.3513
-2.4083 -2.4653 -2.5130 -2.5458 -2.5776 -2.6243
-2.6468 -2.6748 -2.6963 -2.7188 -2.7553 -2.7543
-2.7927 -2.8207 -2.8058 -2.8310 -2.8357 -2.8469
-2.8768 -2.8694 -2.8768 -2.8927 -2.8890 -2.8778
-2.8665 -2.8759 -2.8759 -2.8460 -2.8338 -2.8301
-2.8030 -2.7786 -2.7637 -2.7506 -2.7235 -2.6786
-2.6533 -2.6281 -2.5879 -2.5607 -2.5196 -2.4784
-2.4392 -2.3849 -2.3569 -2.3073 -2.2512 -2.2007
-2.1362 -2.1006 -2.0399 -1.9660 -1.9323 -1.8893
-1.8341 -1.7874 -1.7350 -1.6733 -1.6321 -1.5825
-1.5218 -1.4815 -1.4170 -1.3693 -1.3188 -1.2524
-1.2356 -1.1832 -1.1140 -1.0822 -1.0355 -0.9878
-0.9363 -0.8784 -0.8634 -0.8297 -0.7643 -0.7353
-0.6895 -0.6259 -0.5950 -0.5408 -0.4875 -0.4669
-0.4154 -0.3724 -0.3331 -0.2901 -0.2770 -0.2424
-0.2022 -0.1845 -0.1564 -0.1508 -0.1480 -0.1274
-0.1218 -0.0909 -0.0937 -0.1068 -0.0919 -0.0881
-0.0825 -0.0881 -0.0844 -0.0807 -0.0769 -0.0769
-0.0807 -0.0732 -0.0685 -0.0489 -0.0292 -0.0320
-0.0255 -0.0105 0.0082 0.0297 0.0475 0.0662
0.0961 0.1260 0.1382 0.1662 0.2205 0.2588
0.2813 0.3336 0.3795 0.4159 0.4664 0.4945
0.5338 0.5562 0.5627 0.5936 0.6413 0.6609
0.6478 0.6722 0.6965 0.7152 0.7311 0.7245
0.7395 0.7507 0.7470 0.7573 0.7694 0.7647
0.7741 0.7900 0.7947 0.8050 0.8003 0.8209
0.8321 0.8414 0.8685 0.8770 0.9134 0.9312
0.9396 0.9658 0.9901 1.0200 1.0481 1.0790
1.1089 1.1285 1.1528 1.1912 1.2295 1.2529
1.2604 1.2884 1.3174 1.3427 1.3614 1.3698
1.3894 1.4175 1.4362 1.4287 1.4315 1.4446
1.4614 1.4540 1.4362 1.4353 1.4287 1.4259
1.4194 1.3960 1.3707 1.3483 1.3258 1.3193
1.2781 1.2389 1.2342 1.1959 1.1547 1.1173
1.0780 1.0387 1.0032 0.9630 0.9265 0.8835
0.8339 0.7984 0.7301 0.7077 0.6712 0.5936
0.5721 0.5272 0.4795 0.4374 0.3766 0.3542
0.3121 0.2429 0.2083 0.1756 0.1353 0.0848
0.0372 0.0241 -0.0049 -0.0545 -0.0835 -0.0835
-0.1022 -0.1293 -0.1396 -0.1518 -0.1518 -0.1751
-0.1976 -0.2079 -0.2079 -0.2144 -0.2378 -0.2481
-0.2565 -0.2481 -0.2565 -0.2761 -0.2855 -0.2967
-0.3079 -0.3135 -0.3042 -0.3201 -0.3145 -0.3033
-0.3033 -0.2967 -0.3107 -0.2995 -0.2930 -0.2874
-0.2724 -0.2677 -0.2406 -0.2387 -0.2378 -0.2200
-0.2210 -0.2097 -0.2041 -0.1817 -0.1602 -0.1555
-0.1462 -0.1396 -0.1087 -0.0985 -0.0919 -0.0648
-0.0461 -0.0246 -0.0171 0.0222 0.0587 0.0540
0.0979 0.1335 0.1568 0.1924 0.1933 0.2148
0.2476 0.2691 0.2812 0.2934 0.3102 0.3308
0.3429 0.3373 0.3560 0.3747 0.3785 0.3803
0.3906 0.3878 0.3906 0.4112 0.4308 0.4355
0.4318 0.4439 0.4467 0.4580 0.4711 0.4795
0.4860 0.4916 0.4916 0.4860 0.5010 0.5159
0.5131 0.4907 0.5010 0.4944 0.4729 0.4720
0.4505 0.4495 0.4262 0.3990 0.4028 0.3794
0.3514 0.3392 0.3355 0.3186 0.2999 0.2952
0.2990 0.2943 0.2569 0.2606 0.2700 0.2354
0.2354 0.2279 0.2316 0.2307 0.2073 0.1952
0.1868 0.2036 0.1905 0.1727 0.1587 0.1550
0.1540 0.1334 0.1381 0.1250 0.1091 0.0960
0.0886 0.1054 0.1119 0.1157 0.1241 0.1334
0.1503 0.1634 0.1774 0.1970 0.2260 0.2616
0.2737 0.3093 0.3383 0.3551 0.3953 0.4252
0.4533 0.4841 0.5150 0.5402 0.5842 0.6104
0.6366 0.6843 0.7170 0.7525 0.7862 0.8264
0.8638 0.8928 0.9377 0.9817 1.0060 1.0322
1.0677 1.0976 1.1163 1.1341 1.1547 1.1818
1.1977 1.2080 1.2211 1.2080 1.2313 1.2276
1.2042 1.2183 1.1967 1.1883 1.1893 1.1687
1.1500 1.1341 1.1247 1.1210 1.1135 1.1107
1.1004 1.0742 1.0901 1.0780 1.0434 1.0583
1.0583 1.0331 1.0181 1.0209 1.0162 0.9966
0.9947 0.9863 0.9854 0.9798 0.9480 0.9433
0.9424 0.9274 0.9059 0.9040 0.9022 0.8778
0.8647 0.8507 0.8479 0.8404 0.8273 0.8049
0.7899 0.8021 0.7909 0.7712 0.7778 0.7675
0.7404 0.7394 0.7450 0.7282 0.7198 0.7245
0.7086 0.6917 0.6871 0.6786 0.6712 0.6609
0.6543 0.6244 0.6038 0.6048 0.5692 0.5458
0.5309 0.5019 0.4991 0.4888 0.4579 0.4346
0.4112 0.3822 0.3569 0.3317 0.3102 0.2821
0.2522 0.2223 0.1980 0.1792 0.1400 0.1213
0.1128 0.0782 0.0586 0.0567 0.0390 0.0081
-0.0078 -0.0153 -0.0181 -0.0228 -0.0246 -0.0274
-0.0480 -0.0602 -0.0676 -0.0807 -0.0873 -0.0948
-0.1069 -0.1219 -0.1210 -0.1303 -0.1453 -0.1415
-0.1499 -0.1630 -0.1630 -0.1715 -0.1836 -0.1920
-0.2023 -0.2089 -0.2332 -0.2472 -0.2416 -0.2566
-0.2734 -0.2837 -0.2958 -0.3211 -0.3379 -0.3473
-0.3613 -0.3828 -0.3996 -0.4183 -0.4249 -0.4221
-0.4529 -0.4529 -0.4492 -0.4679 -0.4745 -0.4866
-0.4801 -0.4810 -0.4894 -0.4969 -0.5212 -0.5231
-0.5193 -0.5371 -0.5399 -0.5493 -0.5652 -0.5698
-0.6007 -0.6110 -0.6073 -0.6194 -0.6428 -0.6587
-0.6400 -0.6699 -0.6905 -0.6877 -0.7092 -0.7092
-0.7335 -0.7354 -0.7335 -0.7485 -0.7382 -0.7588
-0.7700 -0.7756 -0.7840 -0.7896 -0.7990 -0.7896
-0.8074 -0.8074 -0.7878 -0.8102 -0.8270 -0.8354
-0.8457 -0.8504 -0.8598 -0.8775 -0.8981 -0.9093
-0.9439 -0.9682 -0.9692 -0.9935 -1.0131 -1.0421
-1.0590 -1.0786 -1.1216 -1.1422 -1.1740 -1.2030
-1.2320 -1.2572 -1.2834 -1.3180 -1.3517 -1.3881
-1.4031 -1.4284 -1.4592 -1.4667 -1.4704 -1.4966
-1.5312 -1.5462 -1.5481 -1.5462 -1.5649 -1.5808
-1.5733 -1.5799 -1.5901 -1.5789 -1.5855 -1.5873
-1.5930 -1.5901 -1.5686 -1.5958 -1.6014 -1.6032
-1.6126 -1.5967 -1.6042 -1.6191 -1.6219 -1.6229
-1.6322 -1.6294 -1.6313 -1.6229 -1.6182 -1.6491
-1.6491 -1.6500 -1.6640 -1.6631 -1.6640 -1.6444
-1.6416 -1.6612 -1.6444 -1.6276 -1.6229 -1.6210
-1.6248 -1.6145 -1.6126 -1.6051 -1.5883 -1.5864
-1.5976 -1.5948 -1.5752 -1.5705 -1.5799 -1.5930
-1.5705 -1.5705 -1.5705 -1.5593 -1.5715 -1.5453
-1.5303 -1.5378 -1.5322 -1.5041 -1.4789 -1.4723
-1.4508 -1.4218 -1.3825 -1.3685 -1.3638 -1.3302
-1.3133 -1.2974 -1.2778 -1.2647 -1.2339 -1.2067
-1.1974 -1.1712 -1.1282 -1.1263 -1.1020 -1.0758
-1.0739 -1.0478 -1.0291 -0.9851 -0.9786 -0.9627
-0.9159 -0.8935 -0.8504 -0.8280 -0.7878 -0.7588
-0.7326 -0.6915 -0.6597 -0.6035 -0.5708 -0.5287
-0.4773 -0.4418 -0.4062 -0.3651 -0.3249 -0.2790
-0.2220 -0.1743 -0.1145 -0.0733 -0.0275 0.0314
0.0670 0.1212 0.1717 0.2203 0.2596 0.2980
0.3531 0.3840 0.4158 0.4635 0.5159 0.5477
0.5729 0.6197 0.6674 0.7010 0.7375 0.7730
0.8123 0.8478 0.8516 0.8843 0.9180 0.9386
0.9853 1.0087 1.0527 1.0760 1.0798 1.1321
1.1546 1.1621 1.1826 1.2126 1.2425 1.2518
1.2621 1.2677 1.2780 1.2780 1.2818 1.2799
1.2696 1.2537 1.2528 1.2752 1.2556 1.2500
1.2294 1.2060 1.2163 1.1985 1.1864 1.1658
1.1770 1.1714 1.1555 1.1583 1.1377 1.1396
1.1340 1.1256 1.1265 1.1340 1.1471 1.1508
1.1536 1.1546 1.1667 1.1761 1.1910 1.2107
1.2257 1.2631 1.2892 1.3023 1.3407 1.3603
1.3818 1.4211 1.4370 1.4716 1.5062 1.5305
1.5539 1.5791 1.6268 1.6362 1.6558 1.6988
1.7157 1.7456 1.7746 1.7914 1.7998 1.8316
1.8625 1.8756 1.9139 1.9383 1.9513 1.9654
1.9831 2.0018 2.0065 2.0177 2.0364 2.0523
2.0523 2.0458 2.0486 2.0486 2.0589 2.0533
2.0598 2.0879 2.0748 2.0608 2.0523 2.0692
2.0767 2.0392 2.0570 2.0832 2.0710 2.0701
2.0636 2.0570 2.0589 2.0458 2.0533 2.0626
2.0439 2.0486 2.0495 2.0262 2.0299 2.0346
2.0196 2.0215 2.0168 2.0028 1.9831 1.9738
1.9766 1.9541 1.9317 1.9046 1.8793 1.8522
1.8101 1.7830 1.7606 1.7353 1.6895 1.6455
1.6165 1.5698 1.5333 1.4940 1.4529 1.3940
1.3463 1.3154 1.2584 1.2210 1.1676 1.0994
1.0489 0.9872 0.9339 0.8918 0.8469 0.7777
0.6973 0.6486 0.5766 0.5027 0.4494 0.3755
0.3129 0.2596 0.2016 0.1296 0.0725 0.0080
-0.0631 -0.1136 -0.1790 -0.2183 -0.2903 -0.3707
-0.4137 -0.4848 -0.5475 -0.6073 -0.6606 -0.7149
-0.7831 -0.8477 -0.9085 -0.9627 -1.0216 -1.0628
-1.1320 -1.2133 -1.2498 -1.3078 -1.3695 -1.4079
-1.4630 -1.5173 -1.5668 -1.6164 -1.6519 -1.6978
-1.7361 -1.7716 -1.8165 -1.8493 -1.8764 -1.8970
-1.9381 -1.9811 -1.9755 -2.0026 -2.0391 -2.0447
-2.0569 -2.0625 -2.0859 -2.0952 -2.1027 -2.1130
-2.1158 -2.1298 -2.1158 -2.1130 -2.1149 -2.1289
-2.1214 -2.0971 -2.1205 -2.1074 -2.0803 -2.0765
-2.0578 -2.0513 -2.0428 -2.0298 -2.0148 -1.9961
-1.9877 -1.9690 -1.9568 -1.9381 -1.9082 -1.8792
-1.8455 -1.8193 -1.7904 -1.7586 -1.7202 -1.6950
-1.6576 -1.5986 -1.5837 -1.5472 -1.5042 -1.4845
-1.4350 -1.3948 -1.3583 -1.3228 -1.2835 -1.2479
-1.2115 -1.1563 -1.1226 -1.0908 -1.0431 -1.0095
-0.9655 -0.9029 -0.8627 -0.8196 -0.7719 -0.7158
-0.6550 -0.6027 -0.5372 -0.4989 -0.4484 -0.3801
-0.3343 -0.2894 -0.2482 -0.1893 -0.1463 -0.1192
-0.0631 -0.0294 -0.0042 0.0379 0.0660 0.1071
0.1342 0.1427 0.1801 0.2193 0.2427 0.2633
0.2829 0.3185 0.3437 0.3484 0.3821 0.4026
0.4241 0.4522 0.4616 0.4896 0.5233 0.5485
0.5560 0.5822 0.6271 0.6477 0.6720 0.7131
0.7449 0.7674 0.7842 0.8319 0.8796 0.9030
0.9544 0.9806 1.0012 1.0460 1.0675 1.0928
1.1162 1.1424 1.1788 1.2031 1.2265 1.2359
1.2518 1.2854 1.3060 1.3126 1.3238 1.3481
1.3584 1.3649 1.3892 1.4014 1.4136 1.4117
1.4080 1.4360 1.4379 1.4454 1.4463 1.4332
1.4594 1.4482 1.4304 1.4407 1.4313 1.4210
1.4145 1.4192 1.4173 1.3939 1.3640 1.3537
1.3481 1.3228 1.3257 1.3135 1.3023 1.2929
1.2630 1.2723 1.2536 1.2434 1.2387 1.2097
1.2059 1.1947 1.1854 1.1676 1.1629 1.1433
1.1152 1.1190 1.1124 1.0816 1.0554 1.0582
1.0367 1.0217 1.0002 0.9834 0.9824 0.9703
0.9665 0.9460 0.9450 0.9394 0.9347 0.9534
0.9403 0.9319 0.9525 0.9562 0.9656 0.9628
0.9712 0.9983 0.9965 1.0133 1.0245 1.0348
1.0451 1.0600 1.0872 1.0881 1.0918 1.1096
1.0965 1.0806 1.0918 1.0909 1.0675 1.0703
1.0629 1.0095 1.0067 0.9731 0.9207 0.9114
0.8599 0.8384 0.7963 0.7309 0.7028 0.6411
0.5775 0.5307 0.4597 0.3989 0.3587 0.2951
0.2436 0.1679 0.0800 0.0323 -0.0257 -0.1015
-0.1735 -0.2361 -0.3156 -0.3820 -0.4456 -0.5111
-0.5653 -0.6280 -0.6775 -0.7234 -0.7954 -0.8590
-0.8879 -0.9525 -0.9992 -1.0451 -1.1030 -1.1348
-1.2106 -1.2461 -1.2789 -1.3387 -1.3668 -1.4266
-1.4752 -1.4939 -1.5314 -1.5790 -1.5968 -1.6267
-1.6595 -1.6660 -1.7034 -1.7324 -1.7511 -1.7801
-1.7782 -1.7745 -1.7773 -1.7820 -1.7979 -1.7960
-1.7857 -1.7829 -1.7782 -1.7801 -1.7605 -1.7277
-1.7212 -1.7006 -1.6810 -1.6950 -1.6688 -1.6408
-1.6436 -1.6286 -1.6193 -1.5987 -1.5856 -1.5781
-1.5510 -1.5491 -1.5388 -1.5033 -1.4865 -1.4827
-1.4640 -1.4406 -1.4397 -1.4135 -1.3724 -1.3630
-1.3312 -1.2938 -1.2798 -1.2620 -1.2424 -1.2237
-1.2171 -1.1853 -1.1461 -1.1405 -1.1311 -1.1152
-1.1059 -1.0881 -1.0666 -1.0582 -1.0385 -1.0170
-1.0058 -0.9992 -1.0021 -0.9852 -0.9721 -0.9637
-0.9525 -0.9375 -0.9179 -0.9366 -0.9310 -0.9226
-0.9226 -0.9048 -0.9132 -0.9020 -0.9020 -0.9104
-0.8983 -0.9039 -0.8861 -0.8674 -0.8721 -0.8562
-0.8319 -0.8468 -0.8646 -0.8328 -0.8160 -0.8169
-0.8169 -0.8094 -0.7786 -0.7870 -0.7935 -0.7748
-0.7598 -0.7430 -0.7402 -0.7281 -0.7065 -0.6897
-0.6682 -0.6486 -0.6448 -0.6046 -0.5653 -0.5541
-0.5270 -0.5111 -0.4784 -0.4531 -0.4316 -0.3970
-0.3736 -0.3484 -0.3250 -0.3035 -0.2895 -0.2539
-0.2277 -0.2081 -0.1800 -0.1613 -0.1286 -0.1118
-0.0940 -0.0650 -0.0416 -0.0267 -0.0098 0.0042
0.0042 0.0444 0.0743 0.0753 0.0865 0.0968
0.1071 0.1071 0.1211 0.1239 0.1276 0.1145
0.1127 0.1211 0.0818 0.0949 0.1071 0.0893
0.0799 0.0668 0.0771 0.0603 0.0472 0.0481
0.0407 0.0584 0.0547 0.0463 0.0566 0.0594
0.0537 0.0463 0.0612 0.0556 0.0547 0.0659
0.0556 0.0818 0.0762 0.0603 0.0837 0.0940
0.1070 0.0940 0.1024 0.1267 0.1164 0.1267
0.1435 0.1594 0.1604 0.1632 0.1622 0.1650
0.1884 0.1856 0.2006 0.2174 0.2408 0.2539
0.2585 0.2960 0.2950 0.2988 0.3249 0.3483
0.3595 0.3483 0.3708 0.3941 0.3951 0.4016
0.3988 0.4063 0.4110 0.4128 0.4325 0.4269
0.4250 0.4241 0.4147 0.4269 0.4128 0.4091
0.4072 0.4110 0.4147 0.3820 0.3876 0.3698
0.3689 0.3595 0.3025 0.3221 0.3081 0.2763
0.2763 0.2679 0.2529 0.2230 0.2155 0.2034
0.1800 0.1547 0.1454 0.1314 0.0967 0.0668
0.0154 -0.0108 -0.0295 -0.0660 -0.0763 -0.1127
-0.1511 -0.1688 -0.1932 -0.2100 -0.2371 -0.2642
-0.2698 -0.2829 -0.3044 -0.3147 -0.3250 -0.3185
-0.3269 -0.3391 -0.3334 -0.3493 -0.3531 -0.3409
-0.3372 -0.3316 -0.3437 -0.3391 -0.3278 -0.3391
-0.3288 -0.3213 -0.3063 -0.2923 -0.2773 -0.2661
-0.2642 -0.2455 -0.2371 -0.2081 -0.1969 -0.1838
-0.1642 -0.1492 -0.1099 -0.1071 -0.0884 -0.0660
-0.0650 -0.0473 -0.0202 0.0079 0.0172 0.0135
0.0163 0.0350 0.0313 0.0303 0.0406 0.0425
0.0528 0.0359 0.0481 0.0593 0.0275 0.0490
0.0481 0.0257 0.0425 0.0434 0.0509 0.0547
0.0528 0.0640 0.0696 0.0724 0.0705 0.0780
0.0874 0.1023 0.1117 0.1229 0.1407 0.1454
0.1566 0.1706 0.1893 0.2005 0.2108 0.2277
0.2305 0.2407 0.2641 0.2697 0.2763 0.2753
0.2847 0.3202 0.3109 0.3165 0.3268 0.3146
0.3315 0.3343 0.3277 0.3193 0.3305 0.3548
0.3380 0.3296 0.3352 0.3221 0.3324 0.3408
0.3221 0.3146 0.3109 0.3081 0.3025 0.3015
0.3053 0.2781 0.2651 0.2753 0.2688 0.2669
0.2660 0.2529 0.2445 0.2435 0.2361 0.2454
0.2323 0.2024 0.2080 0.1940 0.2024 0.1996
0.1725 0.1828 0.1631 0.1584 0.1659 0.1575
0.1566 0.1425 0.1482 0.1313 0.1173 0.1229
0.0874 0.0659 0.0546 0.0434 0.0378 0.0247
0.0191 -0.0080 -0.0230 -0.0314 -0.0641 -0.0875
-0.1156 -0.1202 -0.1324 -0.1558 -0.1661 -0.1988
-0.2100 -0.2278 -0.2474 -0.2512 -0.2549 -0.2717
-0.2839 -0.2839 -0.3045 -0.2989 -0.3035 -0.2970
-0.2774 -0.2923 -0.2708 -0.2811 -0.2914 -0.2540
-0.2400 -0.2184 -0.2091 -0.2044 -0.1885 -0.1782
-0.1689 -0.1492 -0.1268 -0.1006 -0.0641 -0.0716
-0.0548 -0.0239 -0.0080 0.0275 0.0537 0.0911
0.1388 0.1706 0.1912 0.2304 0.2557 0.2959
0.3576 0.3782 0.4221 0.4568 0.4857 0.5456
0.5727 0.5942 0.6307 0.6606 0.6952 0.7392
0.7616 0.7747 0.8065 0.8374 0.8664 0.8953
0.9234 0.9543 0.9599 0.9730 1.0235 1.0300
1.0459 1.0843 1.1030 1.1282 1.1310 1.1581
1.1974 1.2086 1.2292 1.2582 1.2853 1.3087
1.3115 1.3190 1.3396 1.3555 1.3667 1.3704
1.3779 1.3816 1.3910 1.4069 1.4097 1.4172
1.4069 1.4003 1.4022 1.3713 1.3788 1.3882
1.3676 1.3667 1.3489 1.3358 1.3283 1.3106
1.2993 1.2853 1.2797 1.2526 1.2273 1.2189
1.2030 1.1787 1.1413 1.1263 1.1029 1.0805
1.0637 1.0216 1.0048 0.9907 0.9617 0.9355
0.9084 0.8748 0.8476 0.8243 0.7934 0.7607
0.7158 0.7111 0.6924 0.6438 0.6269 0.5886
0.5708 0.5643 0.5231 0.5035 0.4941 0.4726
0.4530 0.4287 0.4231 0.4081 0.3791 0.3660
0.3464 0.3482 0.3408 0.3090 0.3034 0.2959
0.2865 0.2828 0.2734 0.2669 0.2660 0.2622
0.2454 0.2370 0.2342 0.2295 0.2388 0.2342
0.2323 0.2594 0.2603 0.2585 0.2884 0.2856
0.2847 0.3080 0.3221 0.3454 0.3688 0.4006
0.4193 0.4249 0.4455 0.4698 0.4904 0.4904
0.5222 0.5549 0.5343 0.5568 0.5876 0.5755
0.5755 0.5764 0.5914 0.6082 0.5886 0.5839
0.5839 0.5792 0.5867 0.5643 0.5456 0.5493
0.5381 0.5250 0.5082 0.5053 0.5025 0.4623
0.4558 0.4483 0.4184 0.4118 0.3931 0.3866
0.3604 0.3333 0.3211 0.2772 0.2659 0.2388
0.2033 0.1958 0.1668 0.1444 0.1126 0.0939
0.0892 0.0378 0.0097 0.0088 -0.0296 -0.0689
-0.1081 -0.1222 -0.1399 -0.1867 -0.1895 -0.2007
-0.2391 -0.2587 -0.2634 -0.2840 -0.3036 -0.3148
-0.3419 -0.3569 -0.3812 -0.3962 -0.4027 -0.4074
-0.4065 -0.4261 -0.4411 -0.4607 -0.4785 -0.4747
-0.4813 -0.5037 -0.4972 -0.5065 -0.5337 -0.5421
-0.5636 -0.5645 -0.5776 -0.5832 -0.5972 -0.6197
-0.6131 -0.6216 -0.6216 -0.6477 -0.6412 -0.6506
-0.6674 -0.6412 -0.6627 -0.6721 -0.6646 -0.6674
-0.6795 -0.6655 -0.6552 -0.6665 -0.6477 -0.6580
-0.6515 -0.6300 -0.6347 -0.6094 -0.5982 -0.5860
-0.5617 -0.5626 -0.5327 -0.5037 -0.4991 -0.4757
-0.4570 -0.4355 -0.4196 -0.4027 -0.3756 -0.3597
-0.3419 -0.3148 -0.3073 -0.3102 -0.2868 -0.2606
-0.2288 -0.2110 -0.2166 -0.2148 -0.2092 -0.1923
-0.1933 -0.2007 -0.1811 -0.1764 -0.1970 -0.2026
-0.1923 -0.2035 -0.2344 -0.2381 -0.2288 -0.2400
-0.2643 -0.2756 -0.2802 -0.2868 -0.2915 -0.3074
-0.2999 -0.3120 -0.3307 -0.3148 -0.3270 -0.3420
-0.3466 -0.3541 -0.3625 -0.3653 -0.3466 -0.3625
-0.3775 -0.3700 -0.3719 -0.3541 -0.3513 -0.3438
-0.3317 -0.3279 -0.3046 -0.3111 -0.3120 -0.2989
-0.2896 -0.2746 -0.2709 -0.2363 -0.2204 -0.2279
-0.2148 -0.2101 -0.1839 -0.1493 -0.1278 -0.1269
-0.1231 -0.1156 -0.1072 -0.0941 -0.1016 -0.0941
-0.1063 -0.1026 -0.0848 -0.0782 -0.0689 -0.0932
-0.0736 -0.0754 -0.0979 -0.0745 -0.0820 -0.0782
-0.0689 -0.0745 -0.0661 -0.0595 -0.0670 -0.0652
-0.0586 -0.0623 -0.0605 -0.0530 -0.0408 -0.0343
-0.0371 -0.0483 -0.0371 -0.0371 -0.0605 -0.0539
-0.0502 -0.0567 -0.0652 -0.0670 -0.0689 -0.0708
-0.0895 -0.0979 -0.0923 -0.1119 -0.1100 -0.1278
-0.1381 -0.1297 -0.1568 -0.1652 -0.1605 -0.1652
-0.1718 -0.1624 -0.1605 -0.1736 -0.1736 -0.1793
-0.1708 -0.1596 -0.1577 -0.1605 -0.1652 -0.1390
-0.1362 -0.1521 -0.1437 -0.1400 -0.1418 -0.1437
-0.1521 -0.1671 -0.1652 -0.1680 -0.1736 -0.1783
-0.1905 -0.1905 -0.2185 -0.2372 -0.2232 -0.2466
-0.2597 -0.2653 -0.2840 -0.2952 -0.3223 -0.3233
-0.3345 -0.3738 -0.3850 -0.4084 -0.4261 -0.4402
-0.4692 -0.4748 -0.4841 -0.5122 -0.5234 -0.5393
-0.5505 -0.5599 -0.5898 -0.6160 -0.6310 -0.6375
-0.6702 -0.6833 -0.6815 -0.7189 -0.7460 -0.7647
-0.7862 -0.8171 -0.8404 -0.8526 -0.8694 -0.8928
-0.8928 -0.9096 -0.9405 -0.9368 -0.9658 -0.9929
-0.9891 -1.0041 -1.0191 -1.0275 -1.0265 -1.0125
-1.0350 -1.0555 -1.0340 -1.0368 -1.0462 -1.0452
-1.0452 -1.0368 -1.0471 -1.0490 -1.0350 -1.0434
-1.0611 -1.0602 -1.0555 -1.0518 -1.0555 -1.0509
-1.0406 -1.0424 -1.0340 -1.0312 -1.0163 -1.0060
-1.0004 -0.9826 -0.9686 -0.9349 -0.9302 -0.9171
-0.8966 -0.8956 -0.8676 -0.8376 -0.8189 -0.7993
-0.7825 -0.7610 -0.7179 -0.7058 -0.6983 -0.6562
-0.6356 -0.6085 -0.5908 -0.5786 -0.5337 -0.5244
-0.5103 -0.4682 -0.4542 -0.4280 -0.3981 -0.3981
-0.3682 -0.3308 -0.3196 -0.2765 -0.2597 -0.2625
-0.2195 -0.1933 -0.1802 -0.1540 -0.1204 -0.0867
-0.0661 -0.0371 0.0021 0.0367 0.0629 0.0966
0.1265 0.1593 0.2060 0.2266 0.2752 0.3295
0.3556 0.4043 0.4445 0.5006 0.5595 0.5950
0.6409 0.6820 0.7475 0.8027 0.8419 0.8980
0.9289 0.9850 1.0477 1.0776 1.1244 1.1786
1.2113 1.2347 1.2740 1.3198 1.3497 1.3825
1.4189 1.4404 1.4676 1.4881 1.4891 1.5246
1.5620 1.5620 1.5891 1.6060 1.6191 1.6499
1.6415 1.6630 1.6733 1.6808 1.7032 1.6808
1.6957 1.7004 1.6873 1.7126 1.7163 1.7154
1.7051 1.7004 1.7126 1.6957 1.6817 1.6873
1.6948 1.6957 1.6929 1.6761 1.6602 1.6649
1.6471 1.6378 1.6284 1.6125 1.6041 1.5704
1.5545 1.5302 1.4881 1.4956 1.4835 1.4367
1.4086 1.3731 1.3357 1.2964 1.2768 1.2497
1.1982 1.1842 1.1449 1.1178 1.0869 1.0336
1.0093 0.9588 0.9439 0.9074 0.8550 0.8503
0.8148 0.7839 0.7596 0.7316 0.7194 0.6895
0.6624 0.6530 0.6268 0.6091 0.6081 0.5819
0.5670 0.5520 0.5202 0.5305 0.5109 0.4809
0.4660 0.4417 0.4248 0.3912 0.3855 0.3594
0.3322 0.2995 0.2574 0.2546 0.2247 0.2013
0.1835 0.1387 0.1115 0.0966 0.0461 0.0180
0.0049 -0.0287 -0.0437 -0.0821 -0.1204 -0.1410
-0.1615 -0.1933 -0.2336 -0.2616 -0.2859 -0.3187
-0.3710 -0.3925 -0.4168 -0.4561 -0.4776 -0.5010
-0.5272 -0.5861 -0.6291 -0.6497 -0.6731 -0.6965
-0.7357 -0.7675 -0.7928 -0.8087 -0.8330 -0.8639
-0.8901 -0.9228 -0.9340 -0.9424 -0.9518 -0.9546
-0.9854 -0.9882 -0.9817 -0.9911 -0.9817 -0.9836
-0.9733 -0.9574 -0.9555 -0.9434 -0.9209 -0.9125
-0.9041 -0.8816 -0.8527 -0.8283 -0.8152 -0.7937
-0.7629 -0.7591 -0.7591 -0.7311 -0.7171 -0.7124
-0.7114 -0.7068 -0.6768 -0.6591 -0.6628 -0.6647
-0.6507 -0.6516 -0.6478 -0.6413 -0.6544 -0.6516
-0.6469 -0.6460 -0.6404 -0.6404 -0.6544 -0.6656
