Archivo de aceleración parte de la Red Nacional de Acelerógrafos (RENAC) Ecuador
          
Evento: 201604162358
Fecha del evento UTM (aammdd):                  2016    4   16
Hora del registro UTM (hhmmss): 23   59 40.00
Estación:                                      ACUE 
Componente:                                        Z
Frecuencia de muestreo (Hz):            1.000000e+02
Unidades: cm/s^2
_____________________________________________
-0.0801 -0.1025 -0.0913 -0.0726 -0.0221 0.0265
0.0780 0.1519 0.2070 0.2089 0.1453 0.0527
-0.0277 -0.0745 -0.0567 -0.0183 0.0144 0.0452
0.0032 -0.0763 -0.1614 -0.2091 -0.2344 -0.2708
-0.2409 -0.2185 -0.2222 -0.2138 -0.1848 -0.1193
-0.0623 0.0060 0.0611 0.0957 0.1201 0.1257
0.1444 0.1425 0.1547 0.1453 0.0658 -0.0053
-0.1259 -0.2372 -0.2839 -0.2624 -0.1857 -0.1250
-0.0296 0.0443 0.1079 0.1818 0.1855 0.1537
0.1042 0.0340 -0.0314 -0.0567 -0.0623 -0.0427
0.0181 0.0686 0.1481 0.2182 0.2659 0.2949
0.2341 0.1313 0.0219 -0.0417 -0.0773 -0.1081
-0.1109 -0.1231 -0.0913 -0.0932 -0.1942 -0.2559
-0.2811 -0.2755 -0.2007 -0.0829 0.0686 0.1724
0.2285 0.2585 0.2528 0.2491 0.2173 0.1687
0.1238 0.0770 0.0097 -0.0576 -0.1399 -0.2335
-0.2877 -0.3167 -0.3157 -0.3111 -0.2858 -0.2718
-0.2615 -0.1914 -0.1577 -0.1016 -0.0333 -0.0146
0.0368 0.0490 0.0658 0.1051 0.1126 0.1593
0.1790 0.1836 0.1799 0.1051 0.0050 -0.1128
-0.2335 -0.3129 -0.3522 -0.3606 -0.3288 -0.2522
-0.1325 -0.0230 0.0284 0.0359 0.0368 0.0836
0.1528 0.2154 0.2407 0.2528 0.2893 0.2921
0.2734 0.2276 0.1696 0.1341 0.1116 0.0920
0.0050 -0.1306 -0.2625 -0.3513 -0.3990 -0.4224
-0.4233 -0.4299 -0.4055 -0.3494 -0.2438 -0.1072
0.0022 0.0845 0.1172 0.1602 0.2295 0.2846
0.3435 0.4118 0.4632 0.4614 0.4502 0.4380
0.4053 0.3716 0.3333 0.2547 0.1528 0.0415
-0.0792 -0.1661 -0.2213 -0.2092 -0.1362 -0.0988
-0.1241 -0.2017 -0.3326 -0.4467 -0.4850 -0.4579
-0.3681 -0.2456 -0.1063 0.0200 0.1069 0.1630
0.1930 0.2313 0.2463 0.2005 0.1200 -0.0221
-0.1830 -0.2681 -0.2653 -0.1708 -0.0511 0.0302
0.1125 0.1518 0.1658 0.1920 0.2173 0.2640
0.2650 0.2566 0.2238 0.1537 0.0845 -0.0118
-0.0932 -0.1372 -0.1530 -0.1792 -0.1839 -0.1774
-0.2110 -0.2157 -0.2082 -0.1942 -0.1764 -0.1979
-0.2269 -0.2484 -0.1979 -0.1138 -0.0567 -0.0034
-0.0006 -0.0212 -0.0455 -0.0577 -0.0521 -0.0408
-0.0100 0.0003 -0.0053 -0.0016 -0.0109 -0.0362
-0.0455 -0.0081 0.0789 0.1743 0.2650 0.3351
0.3837 0.4277 0.4389 0.3968 0.2893 0.1415
-0.0090 -0.1615 -0.2905 -0.3794 -0.4355 -0.4336
-0.4299 -0.4112 -0.3859 -0.3859 -0.3597 -0.3326
-0.2737 -0.1643 -0.0044 0.1976 0.3781 0.4950
0.5287 0.4726 0.3575 0.2388 0.1060 -0.0006
-0.0408 -0.0483 -0.0343 -0.0221 -0.0118 -0.0137
-0.0231 -0.0483 -0.0839 -0.0773 -0.0717 -0.0792
-0.0446 -0.0137 0.0031 0.0274 0.0199 -0.0128
-0.0857 -0.1849 -0.2400 -0.2382 -0.1577 -0.0119
0.1649 0.3416 0.4688 0.4969 0.4249 0.3304
0.2313 0.1022 0.0003 -0.0595 -0.1362 -0.1933
-0.2400 -0.2952 -0.3682 -0.4673 -0.5374 -0.5748
-0.5421 -0.4617 -0.3551 -0.2316 -0.1437 -0.0970
-0.0857 -0.0642 -0.0465 -0.0278 0.0480 0.1453
0.2378 0.3155 0.3257 0.2893 0.2575 0.2126
0.1724 0.1471 0.1406 0.1518 0.1574 0.2032
0.2977 0.4305 0.6091 0.7746 0.8532 0.8064
0.6596 0.4436 0.2135 -0.0175 -0.2363 -0.4056
-0.5262 -0.6038 -0.7086 -0.8339 -0.9386 -1.0228
-1.0134 -0.8947 -0.7198 -0.5234 -0.3326 -0.1484
0.0405 0.2378 0.4370 0.5857 0.6951 0.7475
0.6895 0.5567 0.3987 0.2621 0.1490 0.0620
0.0265 0.0508 0.1378 0.2135 0.2462 0.2453
0.2191 0.1714 0.1312 0.0845 -0.0530 -0.2588
-0.5178 -0.7460 -0.8423 -0.8629 -0.8058 -0.6777
-0.4776 -0.2195 0.0096 0.2042 0.3734 0.5025
0.5511 0.5511 0.4969 0.3865 0.3042 0.2013
0.1331 0.1162 0.0760 0.0583 0.0723 0.1209
0.1667 0.1995 0.2313 0.2331 0.2397 0.2462
0.2070 0.1060 -0.0605 -0.2597 -0.4430 -0.5777
-0.6384 -0.6057 -0.5393 -0.4757 -0.3701 -0.2288
-0.0680 0.0779 0.1733 0.2257 0.2659 0.3042
0.3491 0.3921 0.3968 0.3547 0.2874 0.2098
0.1247 0.0536 -0.0942 -0.3252 -0.5777 -0.8208
-1.0088 -1.1313 -1.1584 -1.1276 -1.0827 -0.9948
-0.8620 -0.6777 -0.4112 -0.1400 0.0742 0.2219
0.2995 0.3051 0.2668 0.2677 0.2696 0.2593
0.2902 0.3238 0.3472 0.3351 0.2378 0.1312
0.0601 -0.0025 -0.0418 -0.0586 -0.1120 -0.2064
-0.2924 -0.3364 -0.3158 -0.2429 -0.0792 0.1284
0.3351 0.4959 0.5474 0.5530 0.5417 0.5848
0.6895 0.8167 0.9336 0.9476 0.8887 0.7568
0.6035 0.4866 0.3612 0.2378 0.0545 -0.1943
-0.4701 -0.7713 -0.9536 -1.0210 -1.0125 -0.9106
-0.7974 -0.6964 -0.6085 -0.4944 -0.3486 -0.2083
-0.0746 0.0573 0.1779 0.2687 0.3164 0.3135
0.2930 0.3089 0.3491 0.4052 0.4922 0.5604
0.6044 0.6717 0.7269 0.7026 0.6109 0.4903
0.3612 0.1995 0.0068 -0.2270 -0.5038 -0.7367
-0.8956 -0.9770 -1.0322 -1.0780 -1.0874 -1.1023
-1.1051 -1.0677 -0.9667 -0.7816 -0.5450 -0.2878
-0.0446 0.1574 0.3369 0.4622 0.5352 0.5801
0.5623 0.5427 0.5791 0.6427 0.6783 0.6549
0.5717 0.4669 0.3706 0.2649 0.1639 0.0358
-0.1007 -0.1671 -0.2326 -0.3168 -0.3916 -0.4683
-0.5459 -0.6562 -0.7470 -0.7610 -0.7086 -0.5711
-0.3411 -0.0652 0.1742 0.3631 0.4622 0.4763
0.4865 0.4706 0.4510 0.4940 0.5941 0.7390
0.8915 0.9869 0.9906 0.8962 0.7203 0.5043
0.2350 -0.0633 -0.3336 -0.5412 -0.6721 -0.7900
-0.8695 -0.8826 -0.8442 -0.7189 -0.5609 -0.4215
-0.2925 -0.1615 -0.0344 0.0910 0.2209 0.3407
0.4407 0.5146 0.5455 0.5473 0.5286 0.4725
0.4426 0.4491 0.4744 0.4959 0.5193 0.5230
0.4473 0.3219 0.2004 0.1443 0.0938 0.0433
-0.0316 -0.1615 -0.2831 -0.4159 -0.4917 -0.4907
-0.4664 -0.3935 -0.3121 -0.2897 -0.3252 -0.4561
-0.6357 -0.8068 -0.9826 -1.0977 -1.1818 -1.2043
-1.0640 -0.7722 -0.3682 0.0685 0.4744 0.8167
1.0804 1.2496 1.2833 1.1973 0.9644 0.5959
0.2359 -0.0849 -0.3364 -0.4767 -0.5179 -0.4655
-0.3841 -0.2382 -0.0428 0.1162 0.2471 0.2742
0.1424 -0.0671 -0.2822 -0.4589 -0.5824 -0.6768
-0.7657 -0.8470 -0.9022 -0.9237 -0.8966 -0.8639
-0.8096 -0.6871 -0.5861 -0.4842 -0.3645 -0.2672
-0.1204 0.0732 0.2518 0.4014 0.5277 0.6399
0.7792 0.9214 1.0411 1.1140 1.0860 1.0345
0.9859 0.8746 0.6857 0.4856 0.2630 0.0386
-0.0896 -0.1447 -0.2167 -0.3551 -0.5441 -0.7713
-0.9976 -1.1519 -1.1762 -1.1014 -0.9378 -0.6357
-0.2981 0.0311 0.3350 0.5314 0.6726 0.7484
0.7315 0.6390 0.4744 0.2995 0.1714 0.1199
0.1583 0.2667 0.3350 0.3406 0.3229 0.2630
0.1947 0.0732 -0.0886 -0.1999 -0.2392 -0.2186
-0.1784 -0.1803 -0.2878 -0.4075 -0.4384 -0.3767
-0.2663 -0.1728 -0.0980 -0.0344 0.0245 0.0545
0.0647 0.0629 0.0432 0.0199 0.0189 0.0806
0.1751 0.2789 0.3799 0.4341 0.4575 0.4753
0.5277 0.6090 0.6595 0.6502 0.5613 0.4089
0.2303 0.0180 -0.2317 -0.4459 -0.6226 -0.7451
-0.8106 -0.8583 -0.8199 -0.7199 -0.5618 -0.3383
-0.1195 0.1162 0.3210 0.5164 0.7381 0.9569
1.1748 1.3450 1.4423 1.4684 1.4329 1.3141
1.1318 0.8952 0.6258 0.3631 0.0666 -0.2205
-0.4683 -0.7180 -0.9041 -0.9911 -1.0051 -1.0257
-1.1052 -1.1220 -1.0921 -1.0753 -1.0743 -1.1136
-1.1323 -1.1351 -1.0734 -0.9247 -0.7825 -0.5712
-0.3280 -0.1176 0.1367 0.3967 0.6146 0.8082
0.9803 1.0747 1.0981 1.0897 1.0513 0.9999
0.9475 0.9391 0.9214 0.8531 0.7671 0.5641
0.2396 -0.1532 -0.5740 -0.9238 -1.2090 -1.4362
-1.5672 -1.6308 -1.6476 -1.6027 -1.5083 -1.3764
-1.1884 -0.9911 -0.8340 -0.6937 -0.5282 -0.3486
-0.1289 0.1480 0.4510 0.7044 0.8166 0.8260
0.7091 0.5089 0.3818 0.3462 0.3518 0.3032
0.1536 -0.1148 -0.4160 -0.6554 -0.8415 -0.9387
-1.0014 -1.0612 -1.0930 -1.1015 -1.0304 -0.8714
-0.6778 -0.4421 -0.1868 0.0021 0.1031 0.0909
0.0479 0.0713 0.1545 0.3322 0.5239 0.6286
0.6118 0.4594 0.2340 0.0731 0.0152 0.0844
0.2564 0.4453 0.6212 0.6894 0.6875 0.6857
0.6642 0.6399 0.6427 0.6558 0.6230 0.5258
0.3827 0.2733 0.2368 0.2854 0.4051 0.5080
0.5725 0.5669 0.5819 0.6380 0.6932 0.7885
0.7848 0.6978 0.5856 0.4341 0.2723 0.1012
0.0123 -0.0297 -0.0840 -0.1130 -0.1448 -0.2028
-0.2813 -0.4048 -0.5731 -0.7554 -0.9322 -1.0678
-1.1613 -1.1884 -1.1089 -0.9200 -0.7124 -0.5422
-0.3870 -0.3019 -0.2224 -0.1401 -0.0840 0.0385
0.2443 0.5594 0.9129 1.2365 1.4712 1.5535
1.5545 1.4591 1.2505 0.9681 0.6473 0.3050
-0.0176 -0.2851 -0.5637 -0.8031 -0.9808 -1.1782
-1.3446 -1.4110 -1.3484 -1.1370 -0.8190 -0.4908
-0.2542 -0.1270 -0.0634 -0.0550 -0.0475 -0.0316
-0.0578 -0.0756 -0.0354 0.0703 0.1816 0.2723
0.3873 0.5014 0.5379 0.5117 0.4883 0.4547
0.4369 0.4397 0.4696 0.4603 0.3995 0.3761
0.3312 0.2985 0.2564 0.1881 0.1938 0.2265
0.3172 0.3761 0.3275 0.2489 0.1002 -0.0400
-0.1803 -0.3262 -0.4169 -0.4665 -0.4375 -0.3421
-0.2430 -0.2224 -0.1747 -0.0905 -0.0784 -0.1121
-0.2084 -0.3169 -0.3515 -0.2925 -0.1700 -0.0363
0.0984 0.2134 0.2845 0.3060 0.2564 0.1302
0.0067 -0.0494 -0.0466 0.0002 0.0189 0.0142
0.0394 0.0441 0.0338 0.0179 -0.0718 -0.2421
-0.4291 -0.6077 -0.8097 -0.9649 -1.0276 -1.0323
-0.9724 -0.9023 -0.8237 -0.7321 -0.6591 -0.5507
-0.4160 -0.2280 0.0628 0.3742 0.6108 0.7352
0.7820 0.7661 0.7221 0.7044 0.7146 0.7679
0.8035 0.7773 0.6978 0.5061 0.2227 -0.0466
-0.2580 -0.4048 -0.4936 -0.5525 -0.5479 -0.5217
-0.4787 -0.3384 -0.1467 0.0778 0.2938 0.4687
0.5959 0.6585 0.6884 0.6950 0.7025 0.6931
0.6408 0.6136 0.6641 0.7371 0.7679 0.6922
0.5154 0.3574 0.2143 0.0834 -0.0457 -0.2477
-0.5077 -0.7976 -1.0547 -1.2680 -1.3923 -1.3923
-1.3821 -1.4045 -1.4297 -1.4138 -1.3390 -1.1838
-0.9257 -0.6423 -0.3178 0.0862 0.5117 0.9045
1.1878 1.2982 1.2701 1.1411 0.9624 0.7492
0.4528 0.1058 -0.2308 -0.4703 -0.5965 -0.5993
-0.4768 -0.3328 -0.2206 -0.1822 -0.1860 -0.1607
-0.1121 0.0001 0.1535 0.3116 0.5089 0.6866
0.7913 0.7810 0.6286 0.3939 0.1610 0.0357
0.0179 0.0254 0.0357 0.0385 0.0263 -0.0317
-0.1233 -0.1738 -0.2430 -0.3721 -0.5067 -0.6620
-0.8013 -0.9014 -0.9696 -0.9463 -0.8387 -0.6536
-0.4029 -0.1691 0.0665 0.2844 0.4808 0.7268
1.0027 1.2823 1.4572 1.4927 1.4057 1.1925
0.9297 0.6080 0.2928 0.0731 -0.0644 -0.0850
-0.0130 0.0628 0.1152 0.1301 0.0591 -0.0840
-0.2608 -0.4422 -0.5937 -0.6826 -0.7125 -0.7452
-0.7331 -0.7162 -0.7639 -0.8546 -0.9949 -1.1296
-1.2399 -1.2951 -1.3465 -1.3839 -1.3297 -1.2446
-1.1127 -0.9192 -0.6517 -0.3459 -0.0466 0.2003
0.2573 0.1657 0.0385 -0.0579 -0.1055 -0.1458
-0.1458 -0.0504 0.1591 0.4761 0.8455 1.1700
1.3935 1.5292 1.5422 1.4123 1.0896 0.5509
-0.0036 -0.4123 -0.6377 -0.7321 -0.7620 -0.7854
-0.8649 -0.9650 -1.0632 -1.1399 -1.1763 -1.1492
-1.0950 -0.9669 -0.7574 -0.5385 -0.2655 0.0656
0.3639 0.4920 0.4845 0.3751 0.1984 0.0216
-0.1916 -0.3936 -0.5451 -0.6620 -0.7789 -0.8967
-1.0230 -1.1876 -1.3306 -1.3372 -1.1754 -0.8967
-0.5292 -0.1196 0.2882 0.6557 0.9465 1.2149
1.5684 1.9331 2.2315 2.4194 2.4045 2.2333
1.9472 1.5965 1.1925 0.6856 0.1105 -0.4104
-0.7780 -0.9996 -1.0576 -0.9996 -0.8752 -0.7116
-0.5965 -0.5311 -0.5292 -0.5479 -0.5432 -0.5395
-0.4796 -0.3272 -0.1355 0.0385 0.1554 0.1890
0.1890 0.1984 0.2320 0.2844 0.2938 0.2433
0.1610 0.0216 -0.1336 -0.2692 -0.3908 -0.3740
-0.1991 0.0515 0.3358 0.5986 0.7847 0.8764
0.9044 0.8726 0.8072 0.7520 0.6781 0.6127
0.5883 0.6351 0.7913 1.0896 1.4983 1.8920
2.1697 2.2053 1.9790 1.5703 1.0643 0.5622
0.0974 -0.3122 -0.6424 -0.8752 -0.9921 -1.0379
-1.0763 -1.1792 -1.3952 -1.6767 -1.9357 -2.1022
-2.1555 -2.1274 -2.0395 -1.8497 -1.5458 -1.2184
-0.9126 -0.6901 -0.5264 -0.3375 -0.1888 -0.0981
-0.0420 0.0169 0.1198 0.2778 0.4555 0.5500
0.5491 0.4929 0.4490 0.4602 0.5191 0.5621
0.5855 0.6669 0.7501 0.8277 0.8661 0.8474
0.8745 0.9605 1.1410 1.3084 1.2878 1.0943
0.7567 0.2891 -0.2131 -0.6770 -1.0800 -1.3737
-1.5027 -1.4588 -1.2343 -0.8865 -0.5507 -0.2618
-0.0411 0.1516 0.3676 0.5603 0.7174 0.7922
0.8511 0.9605 1.1036 1.3000 1.4272 1.4711
1.4552 1.3093 1.0961 0.8520 0.6089 0.3947
0.1740 -0.0616 -0.3656 -0.7312 -1.0716 -1.3410
-1.4999 -1.5729 -1.6075 -1.5925 -1.5177 -1.3718
-1.1418 -0.8575 -0.5320 -0.1767 0.1413 0.4125
0.6706 0.8885 1.0232 1.0026 0.7997 0.4172
-0.0925 -0.5348 -0.8481 -0.9996 -0.9762 -0.8939
-0.7920 -0.6602 -0.5105 -0.3543 -0.1720 0.0328
0.2806 0.5883 0.9680 1.4057 1.7517 1.9649
2.0846 2.1473 2.1332 1.9930 1.7377 1.3028
0.7595 0.1722 -0.4020 -0.8397 -1.1782 -1.4625
-1.7543 -2.0208 -2.2154 -2.2892 -2.2219 -2.0685
-1.8909 -1.7590 -1.5757 -1.3045 -0.9594 -0.5956
-0.3272 -0.1402 -0.0336 0.0048 0.0122 -0.0401
-0.1954 -0.4030 -0.5704 -0.6592 -0.6059 -0.4329
-0.1888 0.1357 0.4434 0.6388 0.6622 0.5574
0.4200 0.2956 0.2292 0.1675 0.0581 -0.0504
-0.0906 -0.0682 0.0122 0.1338 0.2526 0.3423
0.3900 0.4331 0.5144 0.6070 0.6500 0.6706
0.6818 0.7211 0.8053 0.8717 0.8997 0.8324
0.6987 0.5612 0.4265 0.2956 0.2002 0.1198
0.0319 -0.0214 -0.0626 -0.0776 -0.0514 0.0347
0.1955 0.3826 0.5902 0.7520 0.8146 0.8324
0.8043 0.7725 0.7800 0.7791 0.7033 0.4770
0.1983 -0.1028 -0.4021 -0.6172 -0.7528 -0.7284
-0.5508 -0.3104 -0.0841 0.1067 0.2376 0.2834
0.3498 0.4677 0.6425 0.8371 1.0082 1.1419
1.1298 1.0241 0.8642 0.6463 0.4564 0.2264
-0.0439 -0.2880 -0.5311 -0.7687 -1.0146 -1.2073
-1.2793 -1.2306 -1.0819 -0.9286 -0.8762 -0.9669
-1.0745 -1.0632 -0.8799 -0.6246 -0.4311 -0.3600
-0.5106 -0.8042 -1.1951 -1.5926 -1.8479 -1.9620
-1.9255 -1.8142 -1.6908 -1.5972 -1.5093 -1.4065
-1.3270 -1.2437 -1.2166 -1.2690 -1.3214 -1.3429
-1.2699 -1.0324 -0.6751 -0.2478 0.1422 0.4134
0.6397 0.8370 0.9670 1.0961 1.2420 1.3645
1.4477 1.4477 1.3757 1.2654 1.1428 1.0063
0.8922 0.8193 0.7099 0.5883 0.4658 0.3208
0.1272 -0.1496 -0.4320 -0.6639 -0.7902 -0.7864
-0.7425 -0.6471 -0.4732 -0.2478 0.0505 0.3517
0.5845 0.7360 0.7632 0.7014 0.6472 0.6360
0.6435 0.6893 0.7426 0.7603 0.8118 0.8744
0.9193 0.9287 0.8679 0.7594 0.6584 0.6696
0.7987 1.0353 1.3327 1.5496 1.7124 1.8199
1.8367 1.7956 1.6824 1.5263 1.2784 0.8744
0.3807 -0.1318 -0.5667 -0.8248 -0.9220 -0.9417
-0.9127 -0.8622 -0.8491 -0.9305 -1.0717 -1.2466
-1.4177 -1.5131 -1.5683 -1.6066 -1.5916 -1.5430
-1.4916 -1.3803 -1.1727 -0.8351 -0.4049 0.0300
0.3825 0.6060 0.7454 0.8239 0.8903 0.9249
0.8688 0.7557 0.6210 0.4723 0.3171 0.1777
0.0309 -0.1664 -0.3909 -0.6275 -0.8772 -1.1035
-1.2353 -1.2746 -1.2101 -1.0371 -0.8014 -0.4928
-0.1589 0.2394 0.6977 1.1391 1.5487 1.8779
2.0958 2.1940 2.1799 2.1051 2.0210 1.9452
1.8928 1.8582 1.8012 1.7067 1.5674 1.3972
1.2261 1.0362 0.7725 0.3825 -0.1356 -0.7547
-1.4130 -2.0658 -2.6662 -3.0823 -3.2638 -3.1983
-2.9252 -2.5633 -2.1883 -1.9049 -1.6833 -1.3971
-1.1325 -0.9090 -0.6452 -0.3497 0.0374 0.5013
0.9352 1.3532 1.7030 1.9265 2.0294 1.9564
1.7498 1.4056 1.0315 0.7594 0.5565 0.4536
0.3470 0.1955 0.0112 -0.2067 -0.3731 -0.5368
-0.7088 -0.8585 -0.9707 -1.0446 -1.0362 -0.9754
-0.9408 -0.8772 -0.8286 -0.8089 -0.7958 -0.7687
-0.7500 -0.7631 -0.7752 -0.7584 -0.6864 -0.6069
-0.5340 -0.5340 -0.6041 -0.6658 -0.6817 -0.6135
-0.4573 -0.2394 -0.0009 0.2637 0.5490 0.8043
0.9651 1.0456 1.1045 1.1802 1.2943 1.3663
1.3102 1.1269 0.8398 0.5434 0.3292 0.2048
0.1178 0.0645 0.1113 0.2132 0.3414 0.4816
0.5817 0.6397 0.6490 0.6603 0.7295 0.8407
0.9707 1.1110 1.2157 1.2429 1.2101 1.0839
0.8912 0.6939 0.4704 0.2544 0.1104 0.0449
0.0468 0.0842 0.1394 0.1319 0.0683 -0.0084
-0.1758 -0.3750 -0.5517 -0.7014 -0.7781 -0.7753
-0.6780 -0.5686 -0.5396 -0.5948 -0.7528 -0.9090
-0.9361 -0.8192 -0.5443 -0.2179 0.0645 0.2721
0.3610 0.3086 0.1375 -0.0421 -0.1842 -0.2665
-0.3292 -0.3909 -0.5106 -0.7313 -0.9455 -1.1587
-1.3513 -1.5122 -1.6562 -1.7488 -1.8199 -1.8601
-1.8442 -1.7797 -1.6440 -1.4402 -1.1896 -0.9408
-0.7678 -0.6771 -0.6415 -0.5592 -0.3937 -0.1580
0.1459 0.3825 0.5293 0.5555 0.4676 0.3441
0.1842 0.0533 -0.0486 -0.1337 -0.2226 -0.3816
-0.5059 -0.6004 -0.7463 -0.8342 -0.8753 -0.8996
-0.8828 -0.8407 -0.7912 -0.7033 -0.5359 -0.2796
0.0916 0.5059 0.9894 1.5309 2.0134 2.4408
2.7541 2.9430 3.0562 3.1179 3.0908 2.9439
2.6765 2.3192 1.9293 1.4860 1.0717 0.6743
0.2974 -0.0290 -0.4152 -0.8117 -1.2410 -1.7039
-2.1182 -2.4923 -2.7466 -2.8439 -2.8514 -2.7158
-2.4203 -2.0789 -1.7123 -1.3392 -0.9333 -0.4349
0.0617 0.5012 0.8491 1.0801 1.2036 1.2017
1.0988 0.9062 0.6743 0.4723 0.3114 0.2057
0.1805 0.2160 0.2936 0.9404 0.9404 0.7179
0.5785 0.5290 0.6917 1.1060 1.5240 1.5895
1.1630 0.4831 -0.2276 -0.8383 -1.3769 -1.8829
-2.0933 -1.8155 -1.0683 -0.0854 0.8656 1.5876
1.7643 1.2640 0.1942 -1.0945 -2.1803 -2.9050
-3.3633 -3.7186 -3.9159 -3.9721 -3.8383 -3.4699
-3.1154 -2.8237 -2.5702 -2.2448 -1.7239 -1.2413
-0.9262 -0.7176 -0.6260 -0.6054 -0.7204 -0.9206
-0.9047 -0.7204 -0.5390 -0.5007 -0.6980 -1.0739
-1.5228 -1.8903 -2.1400 -2.3046 -2.4571 -2.5870
-2.6076 -2.4589 -1.9296 -0.9664 0.3270 1.7008
2.7248 3.1774 2.9736 2.1796 1.0013 -0.1434
-0.7064 -0.4399 0.5075 1.6297 2.5976 3.4056
4.0294 4.4773 4.6073 4.3595 3.9995 3.5450
2.8997 2.0861 1.2612 0.6356 0.1371 -0.2884
-0.6101 -0.7560 -0.5624 0.0006 0.7993 1.6306
2.3900 3.0512 3.5506 3.7825 3.6619 3.3252
3.0231 2.8567 2.7921 2.7145 2.5284 2.2563
1.9290 1.5820 1.2117 0.8479 0.5589 0.3120
0.0820 -0.2229 -0.6390 -1.0206 -1.1534 -1.1375
-1.2778 -1.5976 -2.0446 -2.4168 -2.5945 -2.6721
-2.6244 -2.4814 -2.2812 -1.9960 -1.5901 -1.0337
-0.3435 0.3513 0.8619 0.9526 0.4841 -0.3052
-1.2731 -2.2606 -2.8704 -2.9929 -2.7095 -2.1999
-1.6144 -1.0159 -0.4791 -0.1228 -0.0106 0.0399
0.1157 0.3092 0.6496 1.0565 1.5558 1.9346
2.0431 1.8093 1.0462 -0.1920 -1.6238 -2.8704
-3.4923 -3.3296 -2.5851 -1.5069 -0.4772 0.1652
0.5028 0.7544 1.1836 1.7850 2.1618 2.1880
1.8560 1.1565 0.3008 -0.4688 -0.8607 -0.6166
0.2167 1.2594 2.1665 2.7735 2.9988 2.8361
2.2217 1.4006 0.8142 0.5711 0.5795 0.5019
0.1615 -0.1537 -0.2575 -0.1817 -0.1434 -0.3089
-0.6110 -0.8953 -1.0514 -1.1178 -1.1992 -1.4134
-1.6715 -1.9081 -2.0119 -1.7332 -1.2469 -0.7915
-0.4903 -0.4632 -0.6708 -0.9878 -1.2413 -1.3245
-1.2366 -0.9906 -0.6072 -0.1864 0.2176 0.5664
0.9031 1.2388 1.3679 1.0415 0.1409 -1.0131
-2.0979 -2.8881 -3.2052 -3.0396 -2.4196 -1.6247
-0.8279 -0.2013 0.0324 -0.1686 -0.7353 -1.3208
-1.5228 -1.2478 -0.6484 0.1475 0.9246 1.4960
1.8589 2.1058 2.3583 2.6023 2.7211 2.6425
2.4003 1.8486 1.0144 0.1718 -0.4595 -0.3977
0.4421 1.7953 3.3093 4.2754 4.4241 3.9406
3.0213 1.9402 0.9985 0.4495 0.4065 0.7161
1.1098 1.5082 1.8822 2.0824 1.8813 1.0827
-0.2116 -1.6387 -2.8601 -3.6802 -4.0608 -3.9888
-3.4408 -2.5767 -1.5985 -0.7101 -0.0452 0.3850
0.5749 0.4664 -0.0218 -0.6820 -1.2226 -1.4881
-1.4779 -1.3918 -1.2833 -1.1945 -1.0972 -0.6979
0.0484 0.9807 1.8336 2.2199 2.1226 1.6503
0.9125 0.2055 -0.2892 -0.4192 -0.1995 -0.0003
-0.1658 -0.8485 -1.8267 -2.7001 -3.2407 -3.4838
-3.6475 -3.8813 -4.0907 -4.0019 -3.5006 -2.5458
-1.2609 0.0661 1.0920 1.5082 1.3455 0.8573
0.4655 0.5169 1.0518 1.8084 2.3078 2.2498
1.6279 0.6890 -0.0573 -0.3360 -0.2911 -0.1518
-0.0816 0.0559 0.4000 0.9209 1.4839 1.6859
1.3286 0.3916 -0.9878 -2.3532 -3.2023 -3.2865
-2.6992 -1.6396 -0.5529 0.1859 0.4178 0.2008
-0.0199 -0.0461 0.1092 0.3991 0.6637 0.8583
0.9275 0.8358 0.7395 0.7283 0.8246 1.0808
1.3296 1.4409 1.4184 1.1753 0.7872 0.4486
0.3037 0.5113 1.2005 2.2863 3.6208 4.8833
5.5613 5.4248 4.4737 3.0606 1.7111 0.6432
-0.0059 -0.2658 -0.2780 -0.0077 0.4664 0.9742
1.4390 1.7850 2.0039 2.1572 2.1264 1.8598
1.4287 0.7732 0.0652 -0.5595 -1.0504 -1.2777
-1.3057 -1.2263 -1.1524 -1.1393 -1.1019 -0.9074
-0.4585 0.1877 0.7760 1.0715 1.0790 0.7863
0.1821 -0.7418 -1.8987 -3.0106 -3.9093 -4.4835
-4.5948 -4.0776 -2.9835 -1.6490 -0.4472 0.2476
0.5085 0.5253 0.2364 -0.1601 -0.5772 -0.9466
-1.2085 -1.5788 -2.1371 -2.9124 -3.5932 -3.7681
-3.3893 -2.5608 -1.6022 -0.7820 -0.1910 0.1279
0.1906 0.1064 0.0475 0.0680 0.1167 0.1111
-0.0797 -0.4061 -0.7241 -0.9382 -0.9644 -0.8971
-0.8793 -0.9298 -0.8213 -0.3070 0.5768 1.6148
2.4621 2.9671 3.0597 2.6931 2.0020 1.0622
0.0550 -0.8634 -1.4348 -1.3235 -0.6296 0.3888
1.2557 1.5700 1.4400 1.0593 0.6348 0.3682
0.3140 0.3458 0.2766 -0.0320 -0.7184 -1.6312
-2.4345 -2.7394 -2.3690 -1.4956 -0.2780 0.9883
2.0160 2.4771 2.1068 1.2286 0.3215 -0.3228
-0.6801 -1.0298 -1.4759 -1.8762 -2.1306 -2.1586
-1.8893 -1.3226 -0.6006 0.1214 0.6834 1.0257
1.2183 1.2249 1.0837 0.7526 0.1831 -0.4874
-1.1439 -1.4207 -1.1467 -0.5286 0.1962 0.6694
0.8181 0.7489 0.6208 0.6610 0.8480 1.0912
1.1940 0.9181 0.2458 -0.7147 -1.7312 -2.5196
-2.8637 -2.7889 -2.6617 -2.6299 -2.5589 -2.3933
-2.1006 -1.6779 -1.1411 -0.6099 -0.1601 0.1261
0.2205 0.3711 0.8190 1.5045 1.9646 1.9487
1.5223 0.8789 0.5067 0.5768 1.0304 1.7430
2.3265 2.5183 2.2078 1.6392 1.3222 1.4016
1.7860 2.3088 2.7100 2.8446 2.6651 2.2022
1.6046 1.0238 0.5207 0.1205 -0.2714 -0.7483
-1.2206 -1.6340 -1.9463 -2.1128 -2.0632 -1.7761
-1.3917 -0.9831 -0.6333 -0.3827 -0.1956 -0.0339
0.0821 0.0634 0.0213 0.0110 -0.0273 -0.0815
-0.2443 -0.5641 -0.9559 -1.3160 -1.5750 -1.8257
-2.1296 -2.3690 -2.3793 -2.0744 -1.4637 -0.7418
-0.1367 0.3421 0.7358 1.0874 1.4110 1.7168
1.9852 2.0675 1.8337 1.3315 0.7685 0.3617
0.2159 0.1841 0.0185 -0.4425 -1.2309 -2.1997
-3.0564 -3.4052 -3.0049 -1.9949 -0.9148 -0.1938
0.2093 0.5319 0.9023 1.0893 0.9219 0.4656
-0.3004 -1.2215 -1.9902 -2.4204 -2.3765 -2.0005
-1.5544 -1.2440 -1.2355 -1.3674 -1.4057 -1.3178
-1.1841 -1.0466 -0.8961 -0.6613 -0.3939 -0.2068
-0.0469 0.1410 0.4141 0.6330 0.7396 0.9771
1.4961 2.2845 3.1785 3.8154 3.9781 3.7041
3.1729 2.6305 2.1985 2.0095 2.0208 1.9983
1.7673 1.2324 0.5881 0.2084 0.1944 0.2935
0.2897 0.1878 0.0644 0.0737 0.2028 0.3197
0.4553 0.6844 1.0005 1.2156 1.2810 1.3577
1.6598 2.2172 2.8306 3.2917 3.3609 3.0626
2.5164 1.7514 0.9154 0.1224 -0.6342 -1.4525
-2.4849 -3.7802 -5.1109 -6.1602 -6.7241 -6.8345
-6.6858 -6.3753 -5.8048 -4.9230 -3.7942 -2.4344
-1.1345 -0.2526 0.0990 -0.0918 -0.5678 -0.9391
-0.8474 -0.1255 0.9603 2.0301 2.8662 3.3712
3.6237 3.7705 3.7827 3.5227 2.9513 2.0367
0.8733 -0.3770 -1.6264 -2.7664 -3.6745 -4.1299
-4.0551 -3.5707 -2.8796 -2.2231 -1.6255 -1.0578
-0.4631 0.1757 0.7293 1.0753 1.1109 0.9248
0.6779 0.4572 0.3459 0.3412 0.4534 0.6732
0.9902 1.4120 1.8815 2.3593 2.8054 3.1224
3.1524 2.7858 2.1274 1.4270 0.8602 0.6517
0.9042 1.3390 1.6598 1.6495 1.2605 0.6255
-0.0815 -0.7296 -1.1065 -1.0045 -0.5135 0.2150
0.8883 1.2016 1.0463 0.4983 -0.1582 -0.6566
-0.9531 -1.1598 -1.2131 -1.0662 -0.6940 -0.2526
-0.0534 -0.1282 -0.5322 -1.1616 -1.6732 -1.8883
-1.6900 -1.1887 -0.6538 -0.2227 -0.0076 0.0251
0.0335 0.1056 0.1476 0.0644 -0.0815 -0.1759
-0.2012 -0.2012 -0.0628 0.3852 1.2502 2.3388
3.3123 3.9735 4.2007 4.0735 3.6864 3.0841
2.3968 1.6206 0.7761 -0.0048 -0.6763 -1.1813
-1.5020 -1.6554 -1.7293 -1.9341 -2.3586 -2.7439
-2.6345 -1.9677 -1.1092 -0.4219 -0.0712 -0.1030
-0.5921 -1.3879 -2.2745 -2.9469 -3.0030 -2.4662
-1.5656 -0.6173 0.2056 0.8939 1.4326 1.8506
2.1387 2.3472 2.5043 2.5071 2.1499 1.5364
1.1202 1.1941 1.6636 2.1574 2.3528 2.2462
2.1059 2.0507 1.9741 1.8534 1.8431 2.0610
2.3846 2.5155 2.2808 1.7721 1.1764 0.6564
0.3094 0.1879 0.1907 0.0308 -0.4088 -0.9035
-1.1307 -0.9493 -0.6070 -0.5126 -0.8923 -1.5703
-2.1791 -2.4568 -2.3296 -1.9724 -1.4927 -0.9231
-0.2227 0.5619 1.2128 1.5794 1.6309 1.3363
0.5629 -0.5584 -1.7723 -2.8533 -3.5688 -3.8287
-3.6436 -3.1900 -2.7673 -2.6364 -2.6906 -2.6972
-2.4942 -2.0650 -1.7807 -1.7582 -2.0117 -2.5054
-3.0778 -3.7530 -4.2271 -4.2982 -4.0158 -3.3855
-2.6392 -1.9686 -1.4169 -0.9951 -0.6818 -0.4303
-0.2788 -0.3882 -0.7482 -1.0952 -1.1522 -0.8427
-0.3087 0.1860 0.4002 0.2795 0.0448 -0.1628
-0.2610 -0.1385 0.1505 0.6246 1.2035 1.7263
2.0779 2.2294 2.2995 2.4071 2.6643 3.0477
3.4348 3.6817 3.6621 3.3525 2.8111 2.2032
1.7281 1.4560 1.2587 1.0127 0.7294 0.5685
0.6761 0.9950 1.5159 2.2247 3.0318 3.8229
4.3672 4.5907 4.5440 4.2615 3.8819 3.5658
3.3675 3.1936 2.9878 2.7288 2.3884 1.9545
1.4663 1.0492 0.8781 1.0211 1.2867 1.4869
1.5140 1.3195 0.8519 0.0364 -1.0858 -2.3680
-3.4911 -4.1775 -4.2879 -3.8147 -3.0067 -2.0462
-1.1157 -0.5266 -0.3358 -0.5481 -1.1522 -1.9705
-2.7757 -3.2049 -3.0778 -2.5475 -1.8798 -1.3065
-0.8492 -0.5238 -0.3947 -0.5415 -1.0297 -1.7601
-2.4811 -2.9749 -3.3424 -3.7090 -4.0644 -4.4515
-4.7658 -4.9612 -5.0744 -5.1080 -5.1604 -5.1080
-4.8032 -4.2336 -3.3546 -2.3810 -1.6245 -1.1756
-0.9193 -0.7884 -0.6453 -0.2965 0.1907 0.7874
1.3868 1.8142 2.0508 2.0527 1.9694 2.0302
2.2014 2.4249 2.5708 2.4511 2.1481 1.6552
0.9454 0.2038 -0.5602 -1.2233 -1.6132 -1.8386
-1.8788 -1.6516 -1.1447 -0.3227 0.6405 1.4775
2.1331 2.5867 2.7877 2.6699 2.2023 1.5767
1.1315 0.9707 0.9725 1.0894 1.2596 1.5028
1.7553 1.7572 1.4383 0.9520 0.5003 0.1421
-0.2460 -0.7538 -1.3065 -1.8293 -2.0902 -1.7666
-0.8398 0.5732 2.0639 3.2722 4.1400 4.6198
4.8882 4.9985 4.9162 4.6188 4.1353 3.6902
3.3788 3.2946 3.3891 3.5574 3.6995 3.5480
3.1094 2.3819 1.3756 0.3675 -0.5696 -1.2738
-1.6656 -1.9667 -2.2781 -2.6653 -3.1039 -3.4733
-3.6781 -3.7155 -3.6388 -3.5004 -3.3358 -3.1731
-3.0628 -2.9337 -2.7214 -2.3969 -1.9265 -1.4075
-0.9483 -0.6752 -0.8398 -1.4758 -2.4053 -3.4509
-4.4814 -5.3642 -5.9777 -6.2845 -6.2405 -5.9179
-5.2745 -4.3440 -3.3181 -2.2398 -1.3963 -0.9586
-0.8800 -1.0923 -1.3532 -1.5010 -1.4168 -1.1353
-0.7239 -0.2591 0.1879 0.7191 1.1914 1.5290
1.7347 1.8124 1.9152 1.9975 2.0340 2.0181
2.0228 2.1135 2.1331 1.9611 1.6122 1.2466
1.0287 0.9988 1.0951 1.2484 1.4607 1.7890
2.2996 3.0169 3.8398 4.6104 5.1584 5.4596
5.6251 5.5970 5.3240 4.8115 4.0353 3.1525
2.3473 1.7637 1.4673 1.2410 0.8996 0.4554
-0.0543 -0.7210 -1.6562 -2.7906 -3.8502 -4.5796
-5.0098 -5.1286 -4.8256 -4.2102 -3.3891 -2.4633
-1.6553 -1.0446 -0.6659 -0.5546 -0.5705 -0.6556
-0.8492 -1.1914 -1.6562 -2.0275 -2.1042 -1.8330
-1.3177 -0.7958 -0.4582 -0.2095 0.0037 0.1057
0.1225 0.0898 0.1693 0.4386 0.7322 0.9324
1.0493 1.1774 1.4056 1.7684 2.1995 2.6372
3.1001 3.4995 3.7501 3.7417 3.4415 3.0010
2.3782 1.5879 0.8267 0.3311 0.3600 0.8538
1.5580 2.1313 2.3043 2.0929 1.5374 0.7154
-0.1468 -0.8613 -1.3850 -1.7516 -1.9695 -2.0471
-1.8470 -1.3055 -0.5359 0.4526 1.4720 2.2949
2.7345 2.5998 1.8853 0.6406 -0.8463 -2.1556
-3.0244 -3.3620 -3.2264 -2.7569 -2.1359 -1.5496
-1.1961 -1.0951 -1.0109 -0.7883 -0.3572 0.2422
0.8015 1.3149 1.7918 2.1107 2.1977 1.8966
1.2195 0.3236 -0.6761 -1.6253 -2.3922 -2.7513
-2.5717 -2.0443 -1.4523 -1.1138 -1.2644 -1.9302
-2.9084 -3.8445 -4.4664 -4.5216 -4.0035 -3.0347
-1.7759 -0.4433 0.8613 1.9368 2.6522 2.9103
2.7850 2.5166 2.2426 2.1163 2.1855 2.3810
2.4352 2.1566 1.5524 0.6369 -0.2843 -0.8875
-1.0848 -0.9548 -0.8716 -1.0764 -1.5543 -2.1855
-2.6391 -2.7962 -2.7625 -2.6176 -2.5577 -2.6877
-2.8635 -2.9327 -2.8224 -2.5362 -2.2612 -2.1948
-2.2809 -2.3576 -2.2743 -2.0836 -1.8516 -1.4729
-0.9931 -0.3694 0.3853 1.0736 1.6450 2.0415
2.2230 2.2061 2.1061 1.9377 1.7170 1.5356
1.4627 1.6703 1.9789 2.1827 2.1827 1.9770
1.8180 1.7572 1.7946 2.0303 2.4511 2.8823
3.1572 3.1105 2.7513 2.3473 2.0041 1.8489
1.9162 1.9705 1.9162 1.6319 0.9932 0.1403
-0.6864 -1.2718 -1.4542 -1.2718 -1.0951 -1.2849
-1.9573 -2.7943 -3.2703 -3.2357 -2.7129 -1.8815
-1.0315 -0.3385 0.0908 0.2628 0.3545 0.5013
0.6809 0.8782 0.9277 0.8221 0.7201 0.5583
0.3648 0.1132 -0.2141 -0.6452 -1.2653 -1.9629
-2.6129 -3.0290 -3.1871 -3.1712 -3.1562 -3.2404
-3.1553 -2.7905 -2.0723 -1.0240 0.0674 0.9820
1.3635 0.9970 0.0693 -1.0717 -1.9722 -2.4324
-2.5287 -2.4258 -2.2696 -2.0957 -1.9002 -1.6683
-1.4803 -1.3793 -1.3298 -1.2858 -1.1362 -0.8828
-0.6237 -0.3497 0.0075 0.6061 1.5450 2.7196
3.9035 4.8808 5.5775 6.0329 6.2639 6.2368
5.9170 5.3465 4.6891 3.9334 3.0777 2.2950
1.7339 1.5104 1.4664 1.3645 1.1634 0.8782
0.5107 0.1431 -0.0364 0.1553 0.7332 1.4094
1.8714 2.0612 2.0238 1.8499 1.5880 1.1840
0.6023 -0.1196 -0.8491 -1.4186 -1.6589 -1.4738
-0.8902 -0.0738 0.6958 1.1232 0.9764 0.2844
-0.6770 -1.6075 -2.2154 -2.4426 -2.4295 -2.2687
-2.0873 -1.9227 -1.7553 -1.5823 -1.4186 -1.2063
-0.8594 -0.3834 0.1768 0.7510 1.3785 2.0378
2.5671 2.7420 2.4400 1.8386 1.2738 0.9287
0.8511 1.0512 1.4244 1.8648 2.1931 2.2557
2.0781 1.6591 1.0783 0.5088 0.0964 -0.0149
0.1188 0.3377 0.4518 0.2227 -0.4208 -1.2727
-2.0293 -2.5446 -2.7952 -2.8560 -2.7849 -2.5530
-2.2799 -2.1508 -2.3005 -2.7886 -3.5125 -4.3504
-5.0190 -5.1556 -4.6478 -3.5059 -1.8955 -0.0794
1.5918 2.7009 3.0862 2.9272 2.5185 1.9481
1.1971 0.3424 -0.3543 -0.6414 -0.3992 0.2582
1.0007 1.6488 2.0135 2.0397 1.9752 1.8966
1.9425 2.2829 2.8608 3.6127 4.2935 4.6582
4.5731 3.9980 3.1554 2.2305 1.3271 0.4686
-0.4348 -1.3353 -2.0685 -2.5586 -2.6914 -2.3865
-1.7580 -0.9342 -0.1439 0.4247 0.7539 0.8960
1.0251 1.2280 1.4085 1.4543 1.1111 0.2414
-0.9557 -2.3285 -3.5760 -4.4560 -4.9152 -4.8488
-4.3420 -3.5199 -2.5586 -1.5878 -0.7219 0.0151
0.7417 1.4571 2.1080 2.5055 2.7084 2.7767
2.6121 2.3521 2.0397 1.7386 1.5020 1.2757
1.1784 1.1429 0.9858 0.6388 -0.1149 -1.2156
-2.3313 -3.1851 -3.5396 -3.3918 -2.9738 -2.5829
-2.3537 -2.3612 -2.5604 -2.8428 -3.0897 -3.0607
-2.6726 -1.9086 -0.7995 0.5463 1.9715 3.1030
3.5968 3.5117 3.0161 2.2894 1.5824 1.0606
0.8885 1.0765 1.4637 1.8546 2.0547 1.9883
1.7676 1.6077 1.5815 1.5132 1.1831 0.6351
0.0637 -0.3263 -0.4217 -0.2299 0.1928 0.8287
1.3234 1.3617 1.2701 1.1878 1.1074 1.0457
0.8773 0.5949 0.1703 -0.4338 -1.2035 -2.0433
-2.8887 -3.7023 -4.3410 -4.8348 -5.2304 -5.3697
-5.2126 -4.7637 -4.1427 -3.4965 -2.8887 -2.4893
-2.2780 -2.1901 -2.0928 -1.8974 -1.6785 -1.3970
-1.0155 -0.4076 0.4724 1.4852 2.3699 2.9394
3.1302 2.7589 2.0426 1.3309 0.8193 0.7829
1.1794 1.8742 2.7037 3.3266 3.5594 3.3659
2.7954 2.0323 1.2439 0.4733 -0.2084 -0.6040
-0.6208 -0.3356 0.2685 1.0438 1.7957 2.3624
2.5719 2.5261 2.3474 2.2455 2.3446 2.5476
2.6963 2.6102 2.0875 0.9774 -0.2711 -1.0660
-1.1978 -0.6283 0.4023 1.5675 2.5457 2.9591
2.7673 2.2670 1.7873 1.4833 1.4244 1.6956
2.2081 2.9759 3.9363 4.7107 5.1034 5.0445
4.5246 3.6642 2.5766 1.4048 0.2461 -0.8387
-1.7533 -2.4454 -2.9129 -3.1692 -3.2328 -3.2328
-3.3151 -3.5376 -3.9061 -4.3017 -4.4364 -4.1549
-3.5311 -2.5782 -1.6056 -0.8387 -0.2215 0.0535
0.0142 -0.2458 -0.6769 -1.1015 -1.4672 -1.6617
-1.6972 -1.6850 -1.7440 -2.0011 -2.2630 -2.3163
-2.1349 -1.7851 -1.4522 -1.3166 -1.4438 -1.7458
-2.0806 -2.3191 -2.4136 -2.4753 -2.5847 -2.6885
-2.7755 -2.8858 -2.9644 -2.9700 -2.7914 -2.3387
-1.7879 -1.3138 -1.1080 -1.2259 -1.4185 -1.4166
-1.1267 -0.6236 -0.0008 0.6211 1.2103 1.7153
1.9351 1.7826 1.3309 0.7333 0.1451 -0.3000
-0.5974 -0.8892 -1.2231 -1.6158 -1.9983 -2.2836
-2.4884 -2.4491 -1.9777 -1.0510 0.2246 1.4871
2.3344 2.6290 2.4690 2.1483 1.9641 1.9743
2.1913 2.6000 3.1087 3.6998 4.3413 4.9828
5.5944 5.9994 6.0527 5.8067 5.3672 4.9772
4.7780 4.6452 4.3834 3.7895 2.8385 1.6947
0.5632 -0.4627 -1.3568 -2.1638 -2.9522 -3.7228
-4.4083 -4.8067 -4.7870 -4.3456 -3.6545 -3.0813
-2.8736 -2.9877 -3.3197 -3.6807 -3.9257 -4.1015
-4.0043 -3.5722 -2.9653 -2.2218 -1.3764 -0.3795
0.6670 1.5460 1.9996 1.9388 1.4778 0.7521
0.0684 -0.3973 -0.5160 -0.2804 0.1227 0.5510
0.7530 0.6408 0.2976 -0.2336 -0.8527 -1.5298
-2.2480 -2.8914 -3.3524 -3.4815 -3.1822 -2.5547
-1.7364 -0.8144 0.0544 0.7390 1.1757 1.2178
0.9569 0.6604 0.4846 0.5894 1.0046 1.7705
2.8712 3.9504 4.6462 4.7070 3.9766 2.6655
1.1318 -0.2074 -0.9453 -1.0407 -0.7554 -0.4646
-0.4188 -0.6582 -1.0734 -1.5980 -2.2087 -2.6707
-2.8297 -2.6380 -2.2527 -1.8430 -1.2773 -0.5029
0.4594 1.4366 2.1838 2.6131 2.5607 1.9762
1.0616 0.0264 -0.8677 -1.3745 -1.4699 -1.2399
-0.8087 -0.3477 0.0834 0.5426 1.0897 1.6985
2.1839 2.3307 1.9978 1.0934 -0.2027 -1.5662
-2.7894 -3.7611 -4.3980 -4.6710 -4.6243 -4.2016
-3.4375 -2.3976 -1.1697 -0.1438 0.4108 0.4332
0.0573 -0.2327 -0.0933 0.5361 1.5236 2.4139
3.0265 3.5371 4.0608 4.7219 5.3448 5.6553
5.4925 4.6696 3.4005 2.2129 1.4020 1.0785
1.1589 1.1879 0.9317 0.4304 -0.1850 -0.6479
-1.0463 -1.4811 -1.9543 -2.5641 -3.2430 -3.9687
-4.6252 -4.8964 -4.5775 -3.7835 -2.8044 -1.9328
-1.3268 -0.8648 -0.4393 -0.0344 0.2480 0.2705
0.0993 -0.1915 -0.5833 -0.9509 -1.2389 -1.3586
-1.2333 -1.0706 -0.8087 -0.3346 0.3013 1.0897
1.8977 2.6851 3.3024 3.5951 3.5539 3.2266
2.7796 2.3391 1.9024 1.3628 0.7362 0.0133
-0.7844 -1.4727 -1.9749 -2.2620 -2.2947 -2.1769
-2.0488 -1.8982 -1.6934 -1.4400 -1.1613 -0.8583
-0.3420 0.5024 1.5255 2.4859 3.0442 2.9573
2.2596 1.0832 -0.2121 -1.1332 -1.4184 -1.0575
-0.2401 0.6792 1.3703 1.7369 1.8584 1.8500
1.8500 1.9435 2.1736 2.4485 2.5411 2.3747
2.0548 1.8575 2.0202 2.6028 3.6315 4.8978
6.0481 6.8018 6.9870 6.7523 6.1388 5.1372
3.8999 2.4317 0.8849 -0.5553 -1.7645 -2.6585
-3.3169 -3.8340 -4.2904 -4.7486 -5.2817 -5.8652
-6.3973 -6.6966 -6.6826 -6.4254 -5.9653 -5.3294
-4.6046 -3.9705 -3.4983 -3.1401 -2.6847 -2.1479
-1.6821 -1.3371 -1.2641 -1.3642 -1.4081 -1.3006
-1.0453 -0.6946 -0.3149 -0.0026 0.2097 0.3332
0.4688 0.6072 0.5960 0.4641 0.1863 -0.1213
-0.2812 -0.3879 -0.5019 -0.7385 -1.1173 -1.5419
-1.8589 -1.8795 -1.6120 -1.0874 -0.4168 0.1564
0.3781 0.1639 -0.4262 -1.3109 -2.1647 -2.7183
-2.7847 -2.2909 -1.5391 -0.9555 -0.7900 -0.9602
-1.3483 -1.7411 -2.0029 -2.0964 -1.8963 -1.5755
-1.1884 -0.7498 -0.3897 -0.0156 0.3014 0.4688
0.5240 0.4258 0.2537 0.1761 0.2799 0.5988
0.9439 1.1543 1.2721 1.2179 1.0486 0.8260
0.4725 -0.0044 -0.6272 -1.3735 -2.2180 -3.1317
-3.9032 -4.1800 -3.9144 -3.2598 -2.3620 -1.6223
-1.2164 -0.9966 -0.8292 -0.6815 -0.6675 -0.8292
-1.1061 -1.3988 -1.5615 -1.4755 -1.1061 -0.5085
0.1995 0.9392 1.7453 2.6104 3.4586 4.2610
4.9483 5.3430 5.2429 4.6332 3.7457 2.9012
2.4074 2.4505 3.0190 3.8542 4.6631 5.2354
5.4636 5.5375 5.4870 5.2579 4.9278 4.3769
3.6391 2.8133 1.9352 1.2151 0.5979 -0.1241
-0.9527 -1.8776 -2.7884 -3.4627 -3.7405 -3.6797
-3.4290 -3.1120 -2.8249 -2.5743 -2.3900 -2.2357
-2.0571 -1.8981 -1.8542 -2.0122 -2.3246 -2.6687
-3.0297 -3.3206 -3.4281 -3.3495 -3.0026 -2.3891
-1.5072 -0.3102 1.0524 2.3551 3.3903 4.0917
4.4452 4.5350 4.5780 4.6360 4.7043 4.6771
4.3573 3.6933 2.7198 1.5994 0.5979 -0.1194
-0.5197 -0.7189 -0.7619 -0.7684 -0.9340 -1.2042
-1.4464 -1.4464 -1.0350 -0.2849 0.6727 1.5564
2.1185 2.2326 1.8136 1.0131 0.0227 -0.9246
-1.5839 -1.8869 -1.8308 -1.5689 -1.3108 -1.0798
-0.8825 -0.8292 -0.9433 -1.1294 -1.2772 -1.2669
-1.0667 -0.7544 -0.4205 -0.2036 -0.2101 -0.3597
-0.5122 -0.6309 -0.6048 -0.3036 0.1668 0.6110
0.9186 0.9551 0.6315 0.0573 -0.6384 -1.3267
-1.9224 -2.4461 -2.9754 -3.5777 -4.2417 -4.8112
-5.1993 -5.3704 -5.2180 -4.8075 -4.1201 -3.1943
-2.2357 -1.3295 -0.5608 0.1864 1.0533 2.0128
3.0387 3.9543 4.6136 4.9493 4.7744 4.0945
3.0125 1.6303 0.2650 -0.9031 -1.7812 -2.3713
-2.8174 -3.1129 -3.2756 -3.2934 -3.2214 -3.1793
-3.2494 -3.4206 -3.5300 -3.5281 -3.3168 -2.8080
-1.9215 -0.6899 0.5867 1.8277 3.0546 4.1965
5.1616 5.9284 6.4428 6.6944 6.8131 6.8141
6.6719 6.2548 5.5011 4.5201 3.4904 2.6282
1.9651 1.4489 1.0702 0.9159 0.7915 0.4127
-0.0923 -0.5879 -0.9639 -1.2042 -1.3622 -1.2154
-0.6552 0.2650 1.3404 2.2504 2.9433 3.3857
3.5680 3.4914 3.1612 2.7498 2.2925 1.8707
1.5396 1.2142 0.8691 0.4492 -0.0492 -0.5439
-1.1163 -1.7980 -2.5406 -3.4421 -4.4848 -5.5958
-6.5712 -7.1613 -7.3885 -7.3147 -7.0743 -6.8929
-6.7171 -6.3729 -5.7772 -4.8832 -3.8096 -2.7145
-1.7026 -0.8301 -0.0492 0.6503 1.2974 1.8959
2.3981 2.8480 3.3053 3.7729 4.1628 4.4022
4.4696 4.3891 4.3209 4.3293 4.4041 4.5079
4.4827 4.2554 3.6625 2.6001 1.2684 -0.1427
-1.5147 -2.7472 -3.6553 -4.1201 -4.2005 -3.9910
-3.7133 -3.5262 -3.4720 -3.5627 -3.5917 -3.3710
-2.9099 -2.4395 -2.2020 -2.1319 -2.1337 -2.1740
-2.1740 -2.1272 -2.0973 -2.1440 -2.2226 -2.2188
-2.0795 -1.7513 -1.2434 -0.7263 -0.2681 0.0368
0.0303 -0.2054 -0.6421 -1.0985 -1.3052 -1.1471
-0.5972 0.0153 0.4904 0.8046 0.9832 1.1188
1.2582 1.4854 1.7865 2.1578 2.5207 2.8246
2.9668 2.8087 2.4571 1.9596 1.4966 1.2507
1.3152 1.7912 2.6039 3.5896 4.5257 5.3262
5.8658 6.0669 6.0173 5.6666 4.9204 3.6943
2.0811 0.3782 -1.1396 -2.2048 -2.6350 -2.4358
-1.8036 -1.0134 -0.4158 -0.1091 -0.0501 -0.2465
-0.4457 -0.4794 -0.3662 -0.0997 0.2482 0.6662
1.2507 1.9025 2.6292 3.4867 4.4640 5.5694
6.5691 7.2536 7.3818 6.9001 5.9640 4.6361
2.9836 1.1039 -0.7880 -2.6219 -4.3903 -6.0428
-7.5269 -8.8119 -9.9247 -10.7617 -11.2302 -11.3135
-11.0310 -10.4699 -9.6320 -8.5107 -7.1108 -5.5209
-4.0536 -3.0156 -2.6602 -2.9342 -3.6478 -4.5783
-5.3461 -5.8211 -5.7491 -5.0038 -3.8227 -2.3890
-1.0124 0.1818 1.2432 2.1139 2.7835 3.3025
3.7542 4.1460 4.4406 4.6501 4.7997 4.7642
4.4275 3.8748 3.2137 2.5777 2.0316 1.5453
1.1656 0.8804 0.5652 0.1556 -0.3681 -0.7768
-0.7188 -0.1876 0.6915 1.5846 2.0746 2.0447
1.4836 0.5119 -0.6224 -1.7147 -2.6144 -3.2073
-3.4748 -3.4261 -3.0408 -2.2637 -1.1153 0.1893
1.5883 2.9518 4.0179 4.6249 4.7530 4.4612
3.9263 3.6083 3.5831 3.7729 4.1068 4.3602
4.4790 4.3658 4.0422 3.5606 2.8920 2.1756
1.4153 0.5718 -0.2269 -0.9946 -1.6652 -2.0841
-2.2758 -2.3245 -2.4142 -2.7537 -3.4037 -4.3370
-5.3891 -6.2672 -6.8508 -7.1725 -7.3679 -7.6410
-8.0141 -8.3751 -8.5874 -8.4995 -8.0955 -7.4596
-6.7058 -6.0222 -5.5191 -5.2189 -5.0683 -4.8803
-4.4819 -3.8432 -3.0109 -1.9831 -0.7954 0.7196
2.5254 4.3649 6.3138 7.8746 8.9997 9.8965
10.3183 10.6652 10.9065 11.0019 11.0169 10.8167
10.4997 9.9788 9.3812 8.6536 7.6352 6.3606
4.7792 3.0257 1.3115 -0.0557 -0.8515 -1.1948
-1.1704 -0.9647 -0.6972 -0.2811 0.2005 0.7140
1.0871 1.0572 0.6597 -0.0875 -0.9432 -1.6221
-2.0935 -2.1393 -1.9130 -1.7091 -1.5800 -1.5548
-1.4978 -1.4145 -1.2742 -1.0189 -0.7300 -0.4494
-0.2203 -0.0267 0.2295 0.7289 1.4565 2.2579
3.0716 3.6738 4.0217 4.2368 4.1620 3.8365
3.3914 2.6460 1.6258 0.4830 -0.6140 -1.3846
-1.7409 -1.7428 -1.5174 -1.3911 -1.6418 -1.9616
-2.5311 -3.3344 -3.8581 -4.3538 -4.5960 -4.6400
-4.6718 -4.5053 -4.3183 -3.9760 -3.4551 -2.7051
-1.8905 -1.3724 -1.2200 -1.5230 -1.8877 -2.1131
-2.3329 -2.3562 -2.2319 -1.9410 -1.5903 -1.4510
-1.6081 -2.1112 -2.6078 -2.8986 -2.9987 -2.8491
-2.4067 -1.5174 -0.3147 0.9889 2.3094 3.4765
4.4491 5.3628 6.2624 7.0742 7.8045 8.4087
8.7472 8.7612 8.2796 7.1434 5.5975 3.8674
2.2065 1.0432 0.5036 0.6233 1.0918 1.4032
1.3471 0.8140 -0.0734 -0.9432 -1.5267 -1.7455
-1.5146 -0.9983 -0.3914 0.1473 0.4157 0.5578
0.6373 0.7318 1.0170 1.4734 2.0812 2.7190
3.1492 3.3353 3.3493 3.2427 3.1950 3.1595
3.2633 3.6579 4.1405 4.7970 5.5283 6.1717
6.6393 6.8207 6.7964 6.3999 5.5844 4.3107
2.4478 0.1370 -2.4254 -4.9158 -7.1341 -8.9839
-10.2959 -11.0057 -11.1413 -10.8710 -10.3230 -9.5814
-8.7248 -7.8588 -7.2294 -6.9255 -6.8647 -7.0555
-7.3847 -7.6166 -7.6587 -7.4389 -6.8890 -6.1746
-5.4470 -4.7222 -4.0620 -3.3026 -2.3197 -1.2162
-0.0772 0.9394 1.8025 2.4824 2.9500 3.3409
3.7982 4.3734 5.0233 5.7518 6.3934 6.7777
6.8853 6.6805 6.1764 5.4096 4.5267 3.7412
3.1997 2.9023 2.7686 2.6667 2.4375 2.0102
1.4453 1.0058 0.7860 0.6392 0.4260 -0.0267
-0.6719 -1.3574 -1.9139 -2.0420 -1.6296 -0.7150
0.5438 1.7427 2.5479 2.9079 2.9005 2.6152
2.1551 1.6511 1.2031 0.8851 0.7692 0.9141
1.3340 1.8783 2.4207 2.7508 2.5965 2.0139
1.1807 0.3306 -0.2866 -0.5363 -0.2997 0.3493
1.1124 1.8054 2.2870 2.4703 2.6283 2.9407
3.5046 4.3827 5.2094 5.7060 5.6742 4.9775
3.7908 2.3094 0.8730 -0.1997 -0.9160 -1.3415
-1.6221 -1.9559 -2.3824 -2.9351 -3.4962 -3.9666
-4.1901 -4.1489 -3.9815 -3.4064 -2.6423 -1.7941
-0.7374 0.4129 1.6988 2.8995 4.0330 4.9915
5.7724 6.4813 6.8937 7.1172 7.0686 6.7385
6.2110 5.3301 4.1976 2.8603 1.4229 -0.0014
-1.4406 -2.8761 -4.2883 -5.5321 -6.6234 -7.5305
-8.3273 -9.1297 -9.8077 -10.4184 -10.9168 -11.3330
-11.6510 -11.6996 -11.2778 -10.2126 -8.8576 -7.5380
-6.2026 -4.7624 -3.4400 -2.4151 -1.6202 -1.0535
-0.5821 -0.1519 0.1567 0.3652 0.5635 0.6430
0.5915 0.5635 0.4849 0.4054 0.4765 0.6710
0.9198 1.1077 1.2200 1.3266 1.3668 1.4753
1.6791 1.8587 2.1262 2.4030 2.5872 2.6835
2.5694 2.1682 1.4145 0.2595 -1.1900 -2.8051
-4.4781 -6.0230 -7.4174 -8.8033 -10.1864 -11.6201
-13.1472 -14.4752 -15.4150 -15.8527 -15.7096 -15.2448
-14.5668 -13.7757 -12.9817 -12.0793 -10.9654 -9.5206
-7.6671 -5.4469 -3.0950 -0.9029 0.7935 1.8737
2.4554 2.5666 2.3590 2.0242 1.7923 1.9915
2.7022 3.8675 5.3423 6.8582 8.2628 9.3299
9.9490 10.1977 10.1211 10.0013 10.1126 10.5288
11.2882 12.4440 13.8767 15.1346 16.1829 17.0321
17.4622 17.4912 17.0657 16.4045 15.6714 14.9298
14.1489 13.2100 12.1934 11.0198 9.8255 8.6173
7.3099 6.1662 5.1599 4.2004 3.4476 2.8856
2.4619 2.2263 2.0710 1.8419 1.3967 0.7019
-0.2342 -1.3022 -2.2262 -2.9210 -3.2633 -3.3250
-3.2951 -3.1192 -3.0734 -3.1716 -3.2352 -3.4718
-3.7804 -4.0956 -4.5239 -4.9877 -5.4329 -5.8341
-6.1558 -6.3905 -6.5701 -6.6224 -6.5504 -6.3129
-5.7237 -4.8531 -3.8365 -2.8452 -2.1158 -1.6865
-1.4836 -1.3892 -1.2863 -1.0974 -0.7037 -0.0846
0.6907 1.4949 2.0963 2.4142 2.4255 2.2253
2.0916 2.0392 2.0383 2.0832 2.0093 1.6764
1.2004 0.7206 0.2661 -0.0088 -0.1061 -0.1818
-0.4820 -1.1217 -2.0241 -3.1258 -4.2087 -5.2702
-6.4045 -7.5314 -8.7069 -9.8703 -10.8130 -11.3545
-11.3264 -10.7307 -9.7908 -8.7069 -7.5483 -6.4831
-5.4890 -4.4855 -3.6158 -2.7835 -1.9521 -1.2535
-0.6691 -0.2810 -0.1940 -0.3698 -0.7495 -1.1965
-1.5145 -1.5201 -1.0674 -0.2688 0.7281 1.7372
2.4835 2.8790 2.9108 2.6780 2.3740 2.1786
2.1964 2.4320 2.8033 3.2110 3.5496 3.8142
4.1771 4.6110 4.9000 5.1338 5.5509 6.0259
6.5178 7.0621 7.6690 8.3639 8.9531 9.3832
9.6226 9.6264 9.4384 9.1756 8.6650 7.8561
7.1650 6.5562 6.1353 5.9567 5.8080 5.8155
5.7566 5.4181 4.6802 3.4748 2.0290 0.3971
-1.2694 -2.8536 -4.3275 -5.7134 -7.0404 -8.0981
-8.9753 -9.7599 -10.4529 -11.0627 -11.3956 -11.3890
-11.0673 -10.5904 -10.1293 -9.7665 -9.5439 -9.3644
-9.1530 -8.8809 -8.5087 -7.8802 -6.8571 -5.5376
-3.9272 -2.1868 -0.5288 0.9563 1.8401 2.1010
2.0916 1.9691 1.8045 1.6661 1.7353 1.9981
2.4030 2.8856 3.3139 3.7422 4.0892 4.5399
5.0328 5.3105 5.6322 5.6837 5.5060 5.5471
5.5275 5.5088 5.7239 6.0793 6.6656 7.5148
8.2975 8.7969 9.0466 9.0438 8.7586 8.2031
7.3464 6.2298 5.1039 3.9442 2.7304 1.5259
0.3681 -0.4062 -0.8542 -1.1834 -1.4546 -1.8399
-2.2598 -2.7115 -3.1613 -3.3736 -3.3595 -3.1959
-3.0416 -3.0556 -3.2464 -3.7037 -4.2564 -4.6164
-4.7165 -4.5397 -4.0432 -3.2006 -2.2953 -1.5818
-1.0552 -0.8037 -0.7607 -0.7373 -0.6213 -0.3221
0.0464 0.3616 0.5916 0.6589 0.6309 0.5748
0.3588 0.1212 -0.3380 -0.9178 -1.2937 -1.9736
-2.5253 -2.8573 -3.2221 -3.2913 -3.2679 -2.9920
-2.5001 -2.0465 -1.7108 -1.5481 -1.5135 -1.5210
-1.4592 -1.4330 -1.3077 -1.2011 -1.4938 -1.9652
-2.5646 -3.3474 -3.9693 -4.5491 -5.0840 -5.3776
-5.7508 -6.2361 -6.7991 -7.4528 -8.0831 -8.8238
-9.5991 -10.3902 -11.4283 -12.5468 -13.6157 -14.6294
-15.2700 -15.5253 -15.2990 -14.3704 -13.0424 -11.4788
-9.7721 -8.0579 -6.2988 -4.4294 -2.4552 -0.4782
1.2575 2.6621 4.0013 5.2526 6.3785 7.4811
8.5491 9.6573 10.6439 11.3799 12.0130 12.6471
13.3485 14.1537 14.9673 15.6200 16.1325 16.5879
16.9452 17.1715 17.2229 17.1163 16.7909 16.2279
15.5274 14.6512 13.8600 13.3167 13.0623 13.1044
13.0717 12.9005 12.5152 11.9195 11.2312 10.4821
9.7873 9.1177 8.5416 7.9693 7.4493 7.0734
6.6498 6.1494 5.5378 4.8542 4.1388 3.3963
2.7697 2.2825 1.9112 1.6213 1.3669 1.1687
0.8862 0.4364 -0.1191 -0.3912 -0.2902 -0.2930
-0.1658 0.1362 0.1905 0.0689 -0.1883 -0.7335
-1.5883 -2.6637 -3.8533 -5.0961 -6.3745 -7.4836
-8.2945 -8.8312 -9.0576 -9.1586 -9.1922 -9.1726
-9.2876 -9.3998 -9.4559 -9.5223 -9.5121 -9.4298
-9.2371 -8.8593 -8.4160 -8.1953 -8.2065 -8.2103
-8.1504 -8.0681 -7.7474 -6.9936 -5.9799 -4.8904
-4.0122 -3.4231 -3.0761 -2.8489 -2.4813 -1.9315
-1.0935 -0.1808 0.7619 1.5671 1.8916 2.0880
2.2264 2.3526 2.6266 2.8492 2.9109 2.7678
2.3423 1.7401 1.0181 0.1746 -0.6577 -1.3909
-1.8258 -1.9838 -1.9221 -1.5658 -1.1618 -0.8205
-0.5642 -0.4847 -0.5782 -0.8158 -1.1805 -1.5480
-1.7743 -1.9127 -1.9268 -1.8828 -1.8791 -1.8856
-2.0474 -2.2980 -2.5094 -2.6609 -2.6235 -2.4243
-2.1306 -1.7425 -1.4657 -1.4536 -1.5929 -1.9848
-2.6628 -3.3866 -4.0188 -4.4817 -4.7435 -4.6958
-4.3395 -3.7831 -3.1107 -2.3972 -1.7154 -1.1496
-0.6802 -0.2808 0.1110 0.6235 1.3735 2.2441
3.0961 3.9424 4.7065 5.4406 6.1401 6.7237
7.1838 7.4260 7.5485 7.5728 7.4372 7.3531
7.4223 7.7412 8.2490 8.8316 9.4292 9.7125
9.6760 9.5133 9.3553 9.2010 9.0467 9.0729
9.2468 9.6312 10.1081 10.3382 10.2474 9.7546
8.8952 7.8113 6.6863 5.4116 4.0575 2.9137
1.9187 1.0967 0.1765 -0.7671 -1.6200 -2.5571
-3.3258 -4.0066 -4.5827 -4.9596 -5.2803 -5.6572
-6.2651 -6.9412 -7.4640 -7.7801 -7.7847 -7.5640
-7.2096 -6.7822 -6.4007 -6.1500 -6.0949 -6.1874
-6.2819 -6.3763 -6.5559 -6.8243 -7.2330 -7.5874
-7.9344 -8.3664 -8.7676 -9.4746 -10.4416 -11.3768
-12.1941 -12.6355 -12.6533 -12.4017 -12.0061 -11.5872
-11.2010 -10.9447 -10.7352 -10.4453 -10.0937 -9.5990
-9.0790 -8.5301 -8.0307 -7.6940 -7.2526 -6.7429
-6.2763 -5.7376 -5.0287 -4.1946 -3.1509 -1.8052
-0.2986 1.3875 3.1111 4.5971 5.6772 6.2505
6.5245 6.6395 6.7069 6.8060 6.8724 6.9416
6.9070 6.7761 6.5628 6.1944 5.7128 5.0572
4.2950 3.4197 2.4714 1.6372 0.9948 0.7516
0.8882 1.3314 2.1301 3.1317 4.2586 5.4135
6.4291 7.3204 8.1639 8.9981 9.8771 10.7497
11.5165 12.1665 12.6612 13.0231 13.2045 13.1980
13.0315 12.5611 12.0412 11.5661 10.9442 10.2783
9.4339 8.4126 7.2483 5.8792 4.4372 3.0569
1.8926 0.8975 0.0306 -0.9092 -2.0707 -3.3389
-4.7108 -5.9396 -6.9047 -7.6276 -8.0606 -8.3626
-8.5665 -8.7096 -8.7246 -8.4870 -8.1513 -7.6921
-7.0627 -6.2781 -5.3130 -4.2413 -3.0892 -1.9230
-0.9036 -0.1171 0.4748 0.9546 1.4540 2.0254
2.6070 3.2346 3.8892 4.4437 4.8272 5.0011
4.9123 4.6242 4.2698 3.9387 3.6554 3.3075
2.8408 2.3387 1.7046 0.9041 0.1148 -0.6932
-1.4198 -2.0352 -2.6842 -3.2911 -3.8177 -4.2937
-4.7463 -5.1241 -5.4308 -5.5524 -5.4495 -5.2569
-4.8548 -4.2974 -3.6867 -3.0573 -2.5299 -2.0913
-1.7210 -1.3076 -0.7615 -0.1405 0.4898 1.0631
1.4942 1.6924 1.7588 1.7850 1.7813 1.8402
1.8795 1.8337 1.8009 1.5681 1.2520 0.9995
0.5282 0.1550 -0.1807 -0.5857 -0.9055 -1.3020
-1.5788 -1.6630 -1.5377 -1.2655 -0.8017 -0.0143
0.8732 1.8028 2.7941 3.7901 4.7309 5.6165
6.4086 6.9753 7.4448 7.8553 8.0919 8.2369
8.2051 8.0106 7.7749 7.4541 7.2222 7.0099
6.5666 6.0654 5.4257 4.4952 3.4805 2.3882
1.2585 0.1934 -0.7764 -1.3955 -1.5302 -1.3431
-0.8091 -0.0591 0.4814 0.7479 0.7171 0.3215
-0.3079 -1.1290 -2.0052 -2.7740 -3.4464 -3.9476
-4.3900 -4.8576 -5.2064 -5.5271 -5.8797 -6.1762
-6.3651 -6.3978 -6.1939 -5.7553 -5.2139 -4.6368
-3.9785 -3.1948 -2.3279 -1.5124 -0.8372 -0.3490
-0.1405 -0.2901 -0.7867 -1.5657 -2.6000 -3.7344
-4.8398 -5.8414 -6.6176 -7.2049 -7.6416 -7.8922
-7.8772 -7.5387 -6.8869 -5.9957 -5.0006 -3.9766
-3.0274 -2.2194 -1.5835 -1.1720 -0.8942 -0.6819
-0.4818 -0.2368 0.0456 0.3720 0.6572 0.7536
0.5085 -0.1049 -0.9896 -2.0202 -3.0985 -4.1468
-5.1241 -5.8844 -6.4745 -7.1095 -7.6491 -8.1213
-8.5665 -8.8835 -9.0920 -9.1051 -8.9630 -8.6796
-8.2681 -7.7912 -7.1693 -6.3996 -5.5253 -4.5901
-3.6156 -2.6337 -1.6732 -0.6688 0.2280 0.9902
1.7318 2.4472 3.3132 4.2624 5.2265 6.1711
6.8051 7.1324 7.1727 6.9725 6.6723 6.3581
6.1505 6.0158 5.8840 5.6446 5.2883 4.7992
4.2493 3.7499 3.1804 2.6258 2.0656 1.4475
0.9322 0.5731 0.4422 0.5544 0.8836 1.4437
2.0993 2.7352 3.4001 4.0959 4.8852 5.7942
6.7518 7.7254 8.6063 9.3227 9.7921 9.9829
9.9857 9.9436 9.9427 9.9268 9.9492 9.8697
9.5088 8.9551 8.1453 7.0511 5.7830 4.4307
3.1243 1.9487 0.9518 0.1794 -0.4238 -0.9410
-1.4488 -2.0211 -2.5570 -2.9684 -3.2088 -3.2630
-3.2527 -3.2602 -3.3023 -3.4575 -3.7278 -3.9719
-4.2599 -4.6078 -4.9435 -5.3859 -5.8600 -6.2996
-6.7382 -7.1150 -7.3703 -7.4489 -7.3208 -6.9504
-6.4735 -5.9750 -5.4523 -5.1016 -4.8276 -4.5264
-4.2066 -3.7755 -3.2752 -2.6813 -2.0333 -1.2804
-0.4565 0.2589 0.9303 1.5223 1.9918 2.3855
2.6866 2.7923 2.6380 2.3303 1.9039 1.3792
0.8490 0.4843 0.3730 0.4459 0.6722 0.9294
1.1333 1.3035 1.4213 1.5036 1.6654 1.9151
2.1928 2.5061 2.7259 2.8054 2.7474 2.5398
2.1985 1.6991 1.0800 0.3739 -0.3985 -1.1289
-1.7592 -2.3119 -2.7112 -2.9142 -2.9357 -2.7112
-2.2558 -1.6891 -1.0354 -0.3499 0.3365 0.9968
1.5532 2.0947 2.5959 3.0139 3.4282 3.7443
3.9108 3.9762 4.0015 4.0941 4.2624 4.4588
4.6337 4.7029 4.6103 4.3915 4.0511 3.6770
3.3665 3.1206 2.9728 2.8166 2.5529 2.0984
1.4372 0.5423 -0.4724 -1.5020 -2.5597 -3.4594
-4.3328 -5.2016 -5.9891 -6.7316 -7.2600 -7.5985
-7.7996 -7.8098 -7.6490 -7.3759 -7.0318 -6.7381
-6.3650 -5.7908 -5.2138 -4.6807 -4.2533 -4.0308
-4.0261 -4.1954 -4.4834 -4.9201 -5.4438 -5.8572
-6.0554 -6.0414 -5.7235 -5.1109 -4.2823 -3.2574
-2.1024 -0.8755 0.3973 1.5915 2.6315 3.5769
4.3578 5.0209 5.5876 5.9869 6.3339 6.6490
6.9754 7.4084 7.9237 8.5203 9.1338 9.6622
10.0914 10.3804 10.5216 10.5796 10.5543 10.3813
10.0521 9.6463 9.2404 8.9617 8.7756 8.5708
8.3651 8.0340 7.4823 6.7369 5.8728 5.0919
4.4953 4.0473 3.7724 3.6228 3.4451 3.1711
2.8382 2.4847 2.1452 1.8777 1.6720 1.5280
1.3839 1.1735 0.8967 0.5526 0.2196 -0.1245
-0.4443 -0.6959 -1.0587 -1.4852 -1.9762 -2.6878
-3.4781 -4.4086 -5.4148 -6.3304 -7.2356 -8.0174
-8.7207 -9.2883 -9.6278 -9.9271 -10.2198 -10.3601
-10.4536 -10.7351 -11.1391 -11.6749 -12.2332 -12.6653
-12.9421 -12.9075 -12.5821 -12.0471 -11.3196 -10.5106
-9.6905 -8.9339 -8.3541 -7.9342 -7.7191 -7.6144
-7.4591 -7.2384 -6.8475 -6.3612 -5.9694 -5.7178
-5.6318 -5.6870 -5.7449 -5.6449 -5.3166 -4.7246
-3.8531 -2.7570 -1.4693 -0.2208 0.8004 1.6150
2.1377 2.4398 2.6044 2.6586 2.6942 2.7465
2.9205 3.4395 4.3363 5.4464 6.6584 7.7806
8.7813 9.7258 10.5011 11.1940 11.8365 12.2798
12.5304 12.5772 12.3705 11.8777 11.2146 10.5553
9.9128 9.4705 9.0282 8.5867 8.2707 7.7226
7.1643 6.5593 5.8579 5.1846 4.3335 3.4002
2.3949 1.3737 0.4170 -0.5135 -1.4085 -2.2258
-2.8898 -3.5575 -4.2561 -4.9220 -5.6935 -6.4762
-7.2291 -8.0258 -8.7992 -9.4267 -9.9027 -10.3030
-10.5134 -10.6032 -10.6658 -10.7033 -10.8566 -11.0259
-11.0998 -11.1493 -11.1353 -11.1119 -11.1269 -11.1400
-11.1447 -10.9922 -10.5256 -9.6802 -8.4981 -7.1271
-5.6523 -4.1888 -2.9207 -1.8845 -0.9624 -0.1834
0.4909 1.2166 1.8946 2.5015 3.1309 3.7089
4.3401 5.1126 5.8139 6.5238 7.1915 7.6048
7.9667 8.2510 8.1781 7.9845 7.8171 7.3346
6.8810 6.5088 6.0197 5.6980 5.3566 4.9975
4.6412 4.2344 3.7107 2.9869 2.2930 1.5430
0.7649 0.1056 -0.5023 -0.9053 -1.0681 -1.1260
-1.0475 -0.7800 -0.3246 0.2646 0.8051 1.1792
1.6243 2.0994 2.4090 2.8130 3.2506 3.6443
4.1026 4.5309 4.9349 5.3034 5.5839 5.6821
5.6166 5.4502 5.1808 4.9601 4.8040 4.6225
4.4308 4.2775 4.0764 3.7884 3.4442 2.9719
2.4034 1.7665 1.1109 0.5508 0.2253 0.2216
0.4685 0.7275 0.8407 0.9136 0.8070 0.5900
0.4283 0.1589 -0.0150 -0.0328 0.0065 0.1599
0.2861 0.3675 0.3273 0.0776 -0.2647 -0.7669
-1.4365 -2.1360 -2.8916 -3.6660 -4.2729 -4.7452
-5.2399 -5.7860 -6.3397 -6.9307 -7.4656 -7.7995
-8.0763 -8.3250 -8.5009 -8.5944 -8.5804 -8.4550
-8.2240 -7.9379 -7.5460 -7.2047 -6.7343 -6.2265
-6.0301 -5.7178 -5.3867 -5.0173 -4.4160 -3.7230
-2.8467 -1.8218 -0.7127 0.2515 1.1138 1.8329
2.3360 2.7260 2.7400 2.5633 2.3342 1.8937
1.4196 0.9155 0.3488 -0.1282 -0.5995 -1.1774
-1.7909 -2.4007 -3.0805 -3.7623 -4.3028 -4.7629
-5.1164 -5.2876 -5.3867 -5.3932 -5.3109 -5.2333
-5.1164 -4.9649 -4.7629 -4.4450 -3.9390 -3.2601
-2.5017 -1.6216 -0.6668 0.1776 0.8379 1.3560
1.7431 2.0677 2.3613 2.6615 3.1151 3.5948
4.0184 4.4084 4.6974 4.9705 5.2145 5.4624
5.8112 6.1806 6.4920 6.7417 6.9371 7.0166
6.9474 6.6706 6.2994 5.9524 5.5933 5.2454
4.8096 4.3364 3.9081 3.4798 3.0281 2.6138
2.3304 2.0845 1.7918 1.3466 0.7855 0.1683
-0.4873 -1.0241 -1.5160 -1.9387 -2.2379 -2.4914
-2.7607 -3.2012 -3.8605 -4.6619 -5.5419 -6.5014
-7.3926 -8.1838 -8.8983 -9.4846 -10.0832 -10.6312
-11.1081 -11.5972 -11.9928 -12.2444 -12.3229 -12.2229
-11.9049 -11.3952 -10.7995 -10.1757 -9.5482 -8.8852
-8.2109 -7.4319 -6.5360 -5.5999 -4.6226 -3.7249
-2.9571 -2.3585 -1.8657 -1.3514 -0.7631 -0.0496
0.7528 1.6599 2.4071 3.0075 3.5453 3.8183
4.0390 4.2308 4.4804 4.8601 5.3165 5.8524
6.3387 6.8698 7.4309 7.9893 8.4681 8.8206
9.2293 9.6492 9.9737 10.1290 10.0785 9.8849
9.5389 9.0469 8.3671 7.5666 6.7501 5.7804
4.8480 4.1466 3.4499 2.7644 2.1855 1.5945
1.0371 0.5256 -0.0571 -0.6509 -1.3121 -2.0462
-2.7429 -3.4845 -4.1569 -4.7274 -5.2482 -5.5456
-5.7589 -5.9001 -5.8140 -5.7551 -5.7832 -5.8402
-6.0207 -6.2302 -6.4958 -6.8558 -7.0307 -6.9802
-6.7660 -6.2554 -5.7102 -5.2791 -4.8611 -4.5656
-4.2626 -3.9137 -3.5509 -3.0057 -2.3426 -1.6871
-1.0988 -0.7201 -0.6219 -0.7397 -1.0511 -1.5028
-1.9760 -2.5035 -3.1272 -3.8043 -4.4571 -5.0883
-5.6915 -6.1937 -6.6248 -7.0999 -7.6180 -8.1651
-8.7720 -9.3453 -9.8185 -10.1346 -10.1701 -9.9924
-9.6688 -9.1320 -8.6093 -8.0753 -7.4665 -6.9260
-6.4097 -6.0646 -5.6747 -5.3988 -5.2174 -4.7133
-4.1625 -3.4854 -2.7990 -2.0621 -1.2045 -0.3684
0.5452 1.3878 2.3230 3.3293 4.4300 5.6878
6.8530 8.0070 9.1190 9.9747 10.6097 11.1044
11.4878 11.9245 12.4127 12.7961 13.1057 13.3544
13.4788 13.4414 13.2544 12.8681 12.3229 11.7758
11.2260 10.7303 10.2767 9.7755 9.2686 8.7141
8.1586 7.6367 7.0981 6.5931 6.0806 5.6102
5.1856 4.7246 4.3187 3.9652 3.6108 3.2601
2.9215 2.6204 2.3146 1.9873 1.7292 1.5599
1.5057 1.6806 2.0462 2.4867 2.9496 3.3658
3.7782 4.1794 4.5020 4.7985 5.0528 5.2876
5.4680 5.5578 5.5896 5.5270 5.3203 5.0322
4.7564 4.4365 4.1317 3.8941 3.7052 3.6472
3.7062 3.8464 4.0690 4.2486 4.3009 4.3224
4.3253 4.3355 4.4393 4.5432 4.7087 4.9687
5.1192 5.2314 5.2913 5.1809 4.9939 4.7339
4.4085 3.9858 3.4490 2.8785 2.2716 1.6366
1.0156 0.3844 -0.3254 -1.1063 -1.9433 -2.7784
-3.4470 -3.9352 -4.2635 -4.4580 -4.6319 -4.8180
-5.0873 -5.5185 -6.0403 -6.6033 -7.1700 -7.6815
-8.1763 -8.6373 -9.0609 -9.4687 -9.7754 -10.0532
-10.3543 -10.6255 -10.9481 -11.3166 -11.6804 -12.0666
-12.3715 -12.5398 -12.6417 -12.6474 -12.5529 -12.4341
-12.3313 -12.3500 -12.4407 -12.5136 -12.6006 -12.5894
-12.4762 -12.2798 -11.9740 -11.6841 -11.4176 -11.1511
-10.8864 -10.6255 -10.3449 -9.9437 -9.4182 -8.7542
-7.9546 -6.9549 -5.6924 -4.2532 -2.5923 -0.8051
1.0419 3.0057 4.9416 6.8175 8.5925 10.1215
11.3999 12.4492 13.2591 13.8847 14.3963 14.7816
15.0284 15.0967 15.0051 14.7441 14.3130 13.7435
13.0795 12.4137 11.7160 11.0913 10.4442 9.7905
9.2154 8.5935 8.1287 7.7957 7.5320 7.3095
7.0794 6.9700 6.8428 6.6660 6.4809 6.3313
6.2536 6.1480 6.1143 6.2144 6.4416 6.7783
7.1907 7.6115 7.9070 8.1371 8.1782 8.0959
7.9959 7.8098 7.6106 7.3562 7.2403 7.0860
6.8896 6.7783 6.5361 6.3051 6.0208 5.7384
5.4335 5.0482 4.5834 3.9793 3.4126 2.5961
1.7535 1.0288 0.2554 -0.3113 -0.8210 -1.1586
-1.3400 -1.4794 -1.6000 -1.7646 -1.9245 -2.1882
-2.3734 -2.5969 -2.8541 -2.9850 -3.2020 -3.4330
-3.6527 -3.8978 -4.1072 -4.3018 -4.4879 -4.6880
-4.8956 -5.1593 -5.5568 -6.0571 -6.6425 -7.2597
-7.8124 -8.3137 -8.7373 -9.0515 -9.3695 -9.6781
-9.9287 -10.1242 -10.1167 -9.8680 -9.4873 -9.0123
-8.5681 -8.2445 -8.0537 -7.9826 -7.9087 -7.8480
-7.7208 -7.4225 -7.0175 -6.5303 -5.9944 -5.4090
-4.7609 -4.1110 -3.5293 -3.0505 -2.7559 -2.6362
-2.5885 -2.5511 -2.4819 -2.3014 -1.9404 -1.4504
-0.9285 -0.4497 -0.0429 0.3246 0.6940 0.9923
1.1775 1.2925 1.3159 1.2617 1.1092 0.7941
0.4368 0.0787 -0.3684 -0.8275 -1.3353 -1.9236
-2.4604 -2.8859 -3.1384 -3.2478 -3.2740 -3.1122
-2.7016 -2.2182 -1.7216 -1.1792 -0.6508 -0.1187
0.3508 0.7108 1.0007 1.2420 1.4197 1.5198
1.5450 1.5506 1.6049 1.6498 1.6189 1.4683
1.3038 1.1962 1.1083 1.0971 1.1102 1.1429
1.2177 1.2252 1.1579 1.0400 0.8848 0.7389
0.6211 0.5743 0.6491 0.8773 1.2130 1.5394
1.7938 1.9341 1.9977 2.0164 1.9967 2.0182
2.0743 2.1202 2.1108 1.9977 1.7648 1.4973
1.2757 1.1036 1.0157 1.0335 1.1476 1.2467
1.2673 1.2626 1.2458 1.2720 1.3945 1.5647
1.7508 1.9219 2.0164 2.0500 2.0089 1.8312
1.5002 1.0709 0.5809 0.0151 -0.5320 -1.0828
-1.5644 -1.9862 -2.4473 -2.8223 -3.1926 -3.4703
-3.6910 -3.8902 -3.9089 -3.8865 -3.8173 -3.6967
-3.5367 -3.3198 -3.0673 -2.7390 -2.3491 -1.8431
-1.1988 -0.4731 0.2414 0.9119 1.5675 2.1464
2.6747 3.1835 3.6296 4.0485 4.4591 4.8285
5.1212 5.3269 5.4700 5.4953 5.3344 5.0950
4.7995 4.3590 3.8550 3.3097 2.6570 1.9406
1.2243 0.5164 -0.1560 -0.7929 -1.4083 -2.0180
-2.6408 -3.2272 -3.8154 -4.4429 -5.0059 -5.5053
-5.9336 -6.3208 -6.7547 -7.1662 -7.6066 -8.0340
-8.3379 -8.5914 -8.6840 -8.5241 -8.2136 -7.8694
-7.5805 -7.3691 -7.1372 -6.8360 -6.4825 -6.0196
-5.4819 -4.8535 -4.2175 -3.6648 -3.0953 -2.5464
-1.9413 -1.3316 -0.6535 0.0553 0.5547 1.0896
1.4207 1.5264 1.6152 1.5011 1.4104 1.3739
1.2832 1.2327 1.3543 1.5329 1.6592 1.9219
2.2249 2.5111 2.8758 3.2508 3.6240 3.9943
4.3272 4.6779 5.0539 5.4719 5.9498 6.3659
6.7877 7.1749 7.4349 7.5966 7.6696 7.7968
7.9240 8.0942 8.3158 8.4542 8.5992 8.7404
8.8404 8.9863 9.1818 9.4202 9.6784 9.7017
9.6045 9.5110 9.2622 9.0134 8.7918 8.5421
8.3252 8.1082 7.8566 7.5658 7.2506 6.9467
6.6933 6.4174 6.1163 5.8292 5.4280 4.9089
4.3179 3.6736 3.0030 2.2381 1.5095 0.8213
0.1470 -0.3720 -0.9023 -1.4101 -1.6729 -1.8870
-2.2387 -2.6277 -2.9419 -3.1925 -3.4235 -3.6283
-3.8369 -3.9809 -4.0080 -3.9603 -3.8247 -3.6452
-3.4067 -3.1018 -2.8185 -2.5538 -2.2620 -1.9675
-1.6504 -1.2586 -0.7788 -0.1915 0.4762 1.1981
1.8836 2.4139 2.8384 3.1658 3.2958 3.4660
3.7633 3.8989 4.0467 4.3160 4.5498 4.7518
4.9753 5.1876 5.3803 5.5954 5.7609 5.8516
5.7534 5.5355 5.3335 5.0109 4.6742 4.4180
4.1692 4.0065 3.8625 3.6633 3.5015 3.2658
3.0049 2.7777 2.5364 2.3419 2.0912 1.9921
2.0202 1.7761 1.4955 1.3225 1.1392 1.0205
0.9793 1.0120 1.0551 1.0710 1.0579 1.0784
1.2056 1.4329 1.7854 2.1988 2.6860 3.2294
3.6848 4.1056 4.5330 4.9192 5.2989 5.6637
5.9723 6.2500 6.4698 6.5222 6.4660 6.3342
6.0611 5.7170 5.3017 4.8360 4.3207 3.6773
3.0040 2.3718 1.7611 1.1205 0.4201 -0.2972
-0.9565 -1.5859 -2.2433 -2.8923 -3.5479 -4.1932
-4.8422 -5.4921 -6.0897 -6.6424 -7.1362 -7.5879
-8.0489 -8.5614 -9.0935 -9.6247 -10.1624 -10.6581
-11.0911 -11.4549 -11.7569 -12.0291 -12.1815 -12.2713
-12.2872 -12.0562 -11.8055 -11.5250 -11.2454 -11.1388
-11.0424 -11.0050 -10.9732 -10.8947 -10.8507 -10.7712
-10.6029 -10.3280 -9.9211 -9.4068 -8.8691 -8.2902
-7.6281 -6.9323 -6.2300 -5.5323 -4.7935 -3.9743
-3.1906 -2.4088 -1.6298 -0.9004 -0.1681 0.4622
1.0364 1.6031 2.0885 2.6047 3.1237 3.5277
3.9261 4.2936 4.6340 5.0483 5.4720 5.8816
6.2210 6.5072 6.8196 7.0870 7.2638 7.3489
7.3601 7.3863 7.4789 7.5724 7.6481 7.7314
7.7660 7.7837 7.8324 7.8230 7.7959 7.7716
7.6846 7.5883 7.5051 7.4237 7.2993 7.1132
6.8981 6.6428 6.3567 6.0265 5.7030 5.3551
4.9604 4.6200 4.3002 4.0832 3.9429 3.7522
3.5156 3.2612 3.0358 2.8161 2.6496 2.5112
2.4457 2.4915 2.6234 2.8796 3.1555 3.4707
3.8214 4.1973 4.6696 5.1512 5.6151 6.0593
6.4100 6.7130 6.8645 6.8345 6.7747 6.5297
6.1088 5.5113 4.7444 4.0327 3.3061 2.6047
1.8940 1.2160 0.6810 0.1676 -0.2794 -0.7900
-1.3390 -1.8439 -2.4088 -2.9690 -3.6012 -4.2502
-4.8328 -5.4631 -6.0354 -6.5563 -7.0576 -7.4775
-7.8993 -8.3135 -8.6755 -8.9878 -9.3273 -9.6883
-10.0418 -10.4551 -10.8797 -11.3379 -11.7606 -12.1122
-12.4863 -12.8342 -13.2270 -13.6151 -13.9751 -14.3146
-14.5297 -14.6784 -14.7719 -14.7354 -14.5634 -14.3595
-14.0883 -13.7329 -13.3607 -12.9146 -12.4255 -11.8728
-11.2519 -10.6459 -10.0305 -9.4058 -8.7680 -8.1405
-7.5345 -6.9528 -6.3029 -5.5257 -4.7224 -3.8527
-2.9334 -1.9365 -1.1435 -0.3822 0.5932 1.4283
2.4018 3.3407 4.1945 5.1222 5.9069 6.6129
7.1806 7.6921 8.1616 8.5656 8.8676 9.0612
9.2174 9.3053 9.4063 9.4493 9.4334 9.4643
9.4596 9.3979 9.2249 8.9817 8.7657 8.4814
8.1457 7.8418 7.5051 7.1114 6.7336 6.2950
5.8311 5.4234 4.9670 4.5639 4.1927 3.7485
3.3641 2.9657 2.5542 2.2344 1.8903 1.5929
1.3600 1.0392 0.7129 0.3706 -0.0063 -0.3027
-0.5524 -0.7619 -0.8199 -0.8049 -0.7872 -0.7844
-0.7965 -0.8096 -0.9564 -1.1379 -1.2875 -1.4502
-1.5998 -1.7766 -1.9075 -2.0440 -2.2245 -2.4275
-2.6407 -2.8287 -3.0475 -3.2710 -3.4870 -3.7414
-4.0603 -4.4213 -4.7617 -5.1012 -5.4369 -5.7184
-5.8774 -5.9559 -6.0448 -6.0635 -6.0438 -6.0176
-5.9746 -5.9503 -5.8474 -5.6875 -5.5426 -5.3639
-5.1806 -5.0235 -4.8814 -4.7869 -4.7084 -4.5990
-4.5550 -4.5513 -4.5597 -4.6317 -4.6635 -4.6700
-4.6233 -4.5176 -4.3782 -4.1370 -3.8284 -3.4964
-3.1569 -2.7866 -2.3816 -1.9253 -1.4464 -0.9199
-0.3139 0.2416 0.7690 1.2880 1.7163 2.0857
2.4056 2.6590 2.9237 3.1846 3.4287 3.7242
4.0113 4.3395 4.7417 5.0867 5.4412 5.7863
6.0930 6.4942 6.9356 7.3892 7.8670 8.3449
8.8134 9.1941 9.5102 9.8057 10.0591 10.2798
10.4771 10.6352 10.7362 10.8344 10.8877 10.8914
10.9176 10.8858 10.8774 10.8624 10.7867 10.7755
10.7119 10.5922 10.4135 10.1395 9.8281 9.4858
9.1436 8.8434 8.5740 8.2626 7.9363 7.5023
6.9356 6.2688 5.4655 4.7679 4.1721 3.4960
2.7161 1.8940 1.1365 0.3893 -0.4346 -1.2865
-2.0637 -2.7903 -3.4449 -4.0406 -4.6747 -5.2573
-5.8885 -6.5432 -7.1408 -7.8075 -8.4220 -8.9737
-9.4881 -9.9164 -10.2755 -10.6131 -10.9853 -11.3725
-11.7643 -12.0177 -12.1599 -12.2525 -12.2309 -12.1973
-12.1290 -12.0065 -11.8419 -11.5913 -11.2771 -10.9600
-10.6346 -10.2998 -10.0501 -9.7275 -9.3300 -8.9531
-8.5613 -8.2583 -7.9394 -7.6149 -7.3708 -7.1239
-6.8714 -6.5600 -6.2476 -5.9858 -5.6903 -5.3630
-5.0263 -4.6700 -4.3099 -3.9817 -3.6450 -3.3374
-3.0559 -2.7042 -2.3751 -2.0393 -1.6363 -1.2641
-0.9180 -0.5842 -0.2971 -0.0193 0.2743 0.5203
0.7391 0.9851 1.2132 1.4854 1.8183 2.1840
2.5954 2.9761 3.3034 3.6120 3.8280 3.9636
4.1067 4.2311 4.3704 4.4826 4.5967 4.7576
4.8380 4.9100 4.9521 4.9343 4.9530 4.9353
4.8698 4.7651 4.6285 4.4733 4.3246 4.1815
3.9814 3.7635 3.5232 3.3230 3.1856 3.0397
2.9574 2.8882 2.8162 2.7900 2.7451 2.6974
2.6581 2.5898 2.5234 2.4524 2.3542 2.3130
2.2812 2.2008 2.1840 2.2055 2.2513 2.3383
2.4037 2.4701 2.5253 2.5543 2.5740 2.6020
2.6469 2.6506 2.5936 2.4814 2.3972 2.2466
2.0783 2.0054 1.8174 1.7529 1.7884 1.7575
1.7435 1.6444 1.6341 1.7220 1.8314 1.9839
2.1466 2.3018 2.4496 2.5786 2.6207 2.6600
2.6871 2.6722 2.6310 2.4571 2.2569 2.0400
1.7332 1.4976 1.2656 1.0580 0.9683 0.8196
0.6718 0.5961 0.4446 0.3856 0.4389 0.4287
0.5212 0.5811 0.5745 0.6344 0.5811 0.5390
0.5502 0.5493 0.6559 0.7775 0.9346 1.1581
1.3330 1.4864 1.6229 1.7370 1.8576 1.9811
2.0680 2.1569 2.2345 2.2551 2.3093 2.3720
2.3897 2.3542 2.2953 2.1980 1.9521 1.5266
0.9757 0.3679 -0.2643 -0.8768 -1.4763 -2.0327
-2.5611 -3.1063 -3.6487 -4.2267 -4.8373 -5.4536
-6.0914 -6.6881 -7.2277 -7.7037 -8.0347 -8.4612
-8.8212 -9.0494 -9.4263 -9.6414 -9.8368 -10.0454
-10.0650 -10.0351 -9.9266 -9.7742 -9.5254 -9.2149
-8.8633 -8.4677 -8.1067 -7.6335 -7.1164 -6.6525
-6.1120 -5.5490 -4.9533 -4.3005 -3.6478 -2.9529
-2.2675 -1.5988 -0.9947 -0.4186 0.1556 0.6559
1.2236 1.7538 2.2326 2.8115 3.3483 3.8524
4.3555 4.7548 5.0663 5.2963 5.3814 5.3431
5.2336 5.0803 4.9101 4.7455 4.6089 4.4257
4.1703 3.8898 3.5354 3.1136 2.6423 2.1101
1.5444 0.9505 0.3258 -0.3400 -1.0386 -1.7363
-2.4115 -3.0885 -3.7553 -4.4184 -5.1029 -5.7716
-6.4056 -6.9714 -7.4671 -7.9047 -8.3031 -8.6669
-8.9512 -9.1878 -9.3327 -9.3589 -9.3028 -9.1410
-8.9456 -8.6734 -8.3414 -8.0179 -7.6457 -7.3015
-6.9761 -6.6422 -6.3046 -5.9305 -5.5724 -5.2105
-4.8037 -4.3772 -3.9480 -3.5243 -3.1175 -2.7191
-2.3310 -2.0000 -1.6568 -1.3042 -0.9872 -0.6084
-0.1782 0.3174 0.8738 1.4668 2.0774 2.6759
3.2810 3.8870 4.5070 5.0906 5.6966 6.3185
6.8917 7.4613 7.9607 8.4460 8.8846 9.2185
9.5103 9.6692 9.7179 9.6730 9.5580 9.3821
9.1446 8.9912 8.6649 8.2945 7.9569 7.3696
6.8132 6.1380 5.3768 4.7483 4.1526 3.6065
3.0182 2.4674 1.9334 1.3284 0.6756 -0.0080
-0.6327 -1.1798 -1.7269 -2.2235 -2.6181 -2.9913
-3.3317 -3.6496 -4.0022 -4.3613 -4.6334 -4.8906
-5.1244 -5.2254 -5.3170 -5.3133 -5.1749 -5.0477
-4.8569 -4.5932 -4.2986 -3.8965 -3.4401 -2.9641
-2.4180 -1.8859 -1.3893 -0.8936 -0.4027 0.1192
0.6326 1.1469 1.6893 2.1869 2.6470 3.0369
3.3446 3.6233 3.8758 4.1264 4.3771 4.6398
4.8727 5.0887 5.2861 5.4450 5.5704 5.6050
5.5816 5.4824 5.2814 5.0046 4.6735 4.3743
4.0872 3.7767 3.5485 3.3717 3.1903 3.0809
2.9388 2.7620 2.6358 2.4899 2.3851 2.3608
2.3430 2.3197 2.2664 2.1906 2.1308 2.0513
1.9615 1.8885 1.8278 1.7417 1.6276 1.5257
1.4032 1.2657 1.1451 1.0469 0.9571 0.8514
0.7729 0.6934 0.6102 0.5756 0.5026 0.4007
0.2791 0.1164 -0.0454 -0.2418 -0.4326 -0.7028
-1.0545 -1.3481 -1.6988 -2.0682 -2.4049 -2.7004
-2.8874 -3.0212 -3.1614 -3.3625 -3.6206 -3.9348
-4.2883 -4.6512 -4.9588 -5.1824 -5.3722 -5.5452
-5.7463 -5.9847 -6.2475 -6.5112 -6.8227 -7.1883
-7.5484 -7.9112 -8.3021 -8.7042 -9.0559 -9.4019
-9.6712 -9.8396 -10.0023 -10.1173 -10.2566 -10.4418
-10.6532 -10.8187 -10.8935 -10.9075 -10.7785 -10.5802
-10.3296 -10.0528 -9.7937 -9.5281 -9.2766 -9.0400
-8.8258 -8.5621 -8.3115 -8.0449 -7.7485 -7.5109
-7.2341 -7.0069 -6.8124 -6.5702 -6.3663 -6.1007
-5.7724 -5.4077 -4.9906 -4.5717 -4.0985 -3.5981
-3.0623 -2.4834 -1.9335 -1.3864 -0.8740 -0.3839
0.0725 0.5391 1.0609 1.5304 2.0017 2.4815
2.9397 3.4064 3.8889 4.4052 4.9195 5.4544
6.0006 6.5430 7.0470 7.5249 8.0224 8.4919
8.9679 9.3981 9.8077 10.2042 10.5502 10.8841
11.1637 11.4162 11.5677 11.6500 11.6912 11.6435
11.5275 11.3526 11.1787 10.9963 10.8486 10.6971
10.5250 10.3352 10.1004 9.8713 9.6244 9.3672
9.1456 8.9324 8.7042 8.4985 8.2890 8.0337
7.7653 7.4772 7.1602 6.8282 6.4560 6.1119
5.7200 5.2637 4.8700 4.4734 4.1312 3.7580
3.3634 3.0089 2.6227 2.2636 1.8774 1.5108
1.1582 0.8216 0.4559 0.0416 -0.3306 -0.7337
-1.1124 -1.5351 -1.9971 -2.3814 -2.8041 -3.2128
-3.5729 -3.9451 -4.2322 -4.4267 -4.5988 -4.7746
-4.8933 -4.9008 -4.8737 -4.7624 -4.6128 -4.4669
-4.2359 -4.0320 -3.8076 -3.5224 -3.2633 -2.9248
-2.5451 -2.1635 -1.7605 -1.3565 -0.9151 -0.4540
-0.0051 0.3970 0.7524 1.0965 1.3920 1.6202
1.8166 2.0223 2.2767 2.5152 2.7190 2.8846
3.0211 3.1212 3.1782 3.2633 3.3129 3.4027
3.5018 3.5364 3.5710 3.5345 3.4934 3.4448
3.3540 3.2942 3.2035 3.0810 2.9603 2.8285
2.6676 2.5292 2.3843 2.2131 2.0803 1.8699
1.5996 1.3163 0.9721 0.6373 0.2801 -0.0631
-0.3465 -0.6607 -0.9833 -1.2882 -1.6043 -1.9381
-2.2888 -2.6676 -3.0585 -3.4326 -3.7739 -4.0414
-4.2798 -4.4716 -4.5959 -4.7166 -4.8391 -5.0027
-5.1888 -5.3834 -5.6312 -5.8472 -5.9987 -6.1278
-6.2157 -6.2905 -6.3513 -6.3803 -6.3999 -6.4064
-6.3700 -6.2830 -6.1511 -5.9660 -5.7350 -5.4666
-5.1458 -4.7399 -4.2911 -3.8085 -3.2942 -2.7817
-2.2496 -1.7408 -1.2293 -0.7187 -0.2221 0.2988
0.8394 1.3668 1.8531 2.2973 2.6929 3.0978
3.5121 3.9386 4.3528 4.7391 5.1786 5.5845
5.9548 6.3130 6.6319 6.9564 7.2743 7.5979
7.9168 8.2077 8.4527 8.6313 8.7622 8.8557
8.9539 9.0699 9.1803 9.3000 9.3579 9.3280
9.2962 9.2008 9.0549 8.8885 8.6594 8.4321
8.2039 7.9411 7.6653 7.4062 7.0995 6.7394
6.3654 5.9455 5.5115 5.0290 4.5446 4.0676
3.5682 3.1081 2.5863 2.0654 1.5529 0.9778
0.3998 -0.1790 -0.7271 -1.2769 -1.8109 -2.3440
-2.8565 -3.3624 -3.9011 -4.3397 -4.7680 -5.1598
-5.4703 -5.7770 -6.0146 -6.2409 -6.4438 -6.5813
-6.7244 -6.8581 -6.9049 -6.8740 -6.8273 -6.7291
-6.6112 -6.5018 -6.3999 -6.3251 -6.2315 -6.1717
-6.1511 -6.1464 -6.1679 -6.2175 -6.2848 -6.3279
-6.3550 -6.3129 -6.2568 -6.1951 -6.0735 -5.9846
-5.8687 -5.7368 -5.6059 -5.4385 -5.3122 -5.2346
-5.1720 -5.0822 -5.0149 -4.9447 -4.8381 -4.7231
-4.5753 -4.4341 -4.2274 -3.9824 -3.7411 -3.4522
-3.1744 -2.8742 -2.5899 -2.3075 -1.9736 -1.6538
-1.3106 -0.9253 -0.4792 -0.0378 0.3793 0.7618
1.0788 1.4267 1.6483 1.8410 2.0289 2.1692
2.3778 2.3665 2.4030 2.4423 2.3432 2.3347
2.2010 2.0598 1.9934 1.9990 1.9841 1.9672
1.9925 2.0009 2.0748 2.0140 1.9317 1.8924
1.7933 1.7250 1.5782 1.4042 1.3079 1.2677
1.2135 1.0938 1.0283 0.9956 0.8918 0.7515
0.6140 0.4307 0.2456 0.1240 -0.0004 -0.0593
-0.0191 0.0323 0.1053 0.1866 0.2484 0.3232
0.3372 0.3363 0.3475 0.2839 0.2942 0.3540
0.3943 0.4569 0.4681 0.4653 0.4663 0.4588
0.4485 0.4466 0.5242 0.6075 0.6402 0.6477
0.6299 0.6112 0.5869 0.5673 0.5345 0.4775
0.4532 0.4822 0.4738 0.4728 0.5261 0.5317
0.5804 0.6206 0.6122 0.6655 0.6823 0.6655
0.6814 0.6991 0.7150 0.7506 0.7627 0.7768
0.8235 0.8441 0.9152 1.0049 1.0620 1.1209
1.1303 1.1602 1.1817 1.1275 1.1181 1.1172
1.0770 1.0816 1.0826 1.0246 0.9806 0.9273
0.8834 0.8647 0.7758 0.7347 0.6945 0.6131
0.6038 0.5570 0.5561 0.6094 0.6084 0.6000
0.5317 0.4513 0.3700 0.2475 0.0894 -0.0911
-0.2903 -0.5110 -0.7130 -0.9384 -1.1404 -1.3564
-1.6014 -1.7875 -2.0269 -2.2682 -2.4674 -2.7264
-2.9546 -3.1847 -3.4783 -3.7289 -3.9730 -4.2330
-4.4023 -4.5126 -4.6239 -4.6632 -4.7109 -4.7679
-4.7932 -4.8699 -4.8642 -4.7978 -4.7230 -4.5594
-4.3770 -4.1816 -3.9870 -3.8299 -3.6522 -3.4568
-3.2698 -3.0640 -2.8714 -2.6338 -2.3430 -2.1316
-1.9493 -1.7501 -1.5976 -1.4377 -1.2666 -1.1403
-0.9206 -0.7111 -0.5699 -0.3267 -0.1051 0.0960
0.2821 0.4467 0.6730 0.9479 1.2303 1.4716
1.7540 2.0458 2.3189 2.6191 2.9090 3.2419
3.6020 3.9583 4.3529 4.6905 5.0169 5.4050
5.7510 6.0821 6.4206 6.7423 7.0575 7.3521
7.6111 7.8084 7.9936 8.1647 8.2900 8.4303
8.5734 8.6950 8.7894 8.8652 8.9101 8.8960
8.8371 8.7193 8.6005 8.4584 8.2835 8.1283
7.9721 7.8066 7.6008 7.4287 7.2529 7.0397
6.8237 6.6086 6.4571 6.2355 6.0494 5.9203
5.7267 5.5967 5.4377 5.2563 5.1011 4.9281
4.7410 4.5456 4.3801 4.2239 4.1145 3.9789
3.7862 3.6581 3.4804 3.2635 3.0549 2.7959
2.5705 2.3563 2.1740 2.0197 1.8382 1.6437
1.4352 1.2472 0.9825 0.6852 0.4476 0.1063
-0.2800 -0.5614 -0.7971 -1.1946 -1.5200 -1.7052
-2.2532 -2.5328 -2.6534 -3.0818 -3.1706 -3.1902
-3.2576 -3.2594 -3.2978 -3.3174 -3.4091 -3.4773
-3.4755 -3.4315 -3.3127 -3.1257 -2.9218 -2.7030
-2.4608 -2.2410 -2.0213 -1.7987 -1.6360 -1.4592
-1.2722 -1.1197 -0.9776 -0.8626 -0.7223 -0.6381
-0.6166 -0.5792 -0.5988 -0.6746 -0.7513 -0.8560
-1.0010 -1.1272 -1.2694 -1.4433 -1.6219 -1.8127
-2.0054 -2.1877 -2.3271 -2.4514 -2.5468 -2.6188
-2.6759 -2.7329 -2.8096 -2.8208 -2.8526 -2.8779
-2.8638 -2.9069 -2.9480 -2.9957 -3.0556 -3.0967
-3.1061 -3.0649 -3.0116 -3.0041 -2.9620 -2.9162
-2.9396 -2.9218 -2.9106 -2.9424 -2.9667 -2.9985
-3.0780 -3.1724 -3.2463 -3.3389 -3.3988 -3.4605
-3.5157 -3.5531 -3.6335 -3.7111 -3.7597 -3.7906
-3.8093 -3.8037 -3.8140 -3.8364 -3.8776 -3.9075
-3.8944 -3.9122 -3.8589 -3.7710 -3.7214 -3.6232
-3.5082 -3.3847 -3.2650 -3.1968 -3.0995 -2.9835
-2.9770 -3.0266 -3.0705 -3.1491 -3.2547 -3.3604
-3.4539 -3.5315 -3.5970 -3.6578 -3.7092 -3.7635
-3.7925 -3.8102 -3.8523 -3.9038 -4.0010 -4.1413
-4.2881 -4.4714 -4.6725 -4.8866 -5.1120 -5.2981
-5.4711 -5.6338 -5.7750 -5.8873 -5.9630 -6.0425
-6.1061 -6.1370 -6.1557 -6.1865 -6.1762 -6.1304
-6.0977 -6.0163 -5.9097 -5.7517 -5.5375 -5.3290
-5.0821 -4.7987 -4.5677 -4.3601 -4.1394 -3.9552
-3.7803 -3.6045 -3.3941 -3.1285 -2.8900 -2.6945
-2.4682 -2.1858 -1.8753 -1.5677 -1.2385 -0.8766
-0.5567 -0.2425 0.0689 0.3803 0.7217 1.0322
1.3118 1.6026 1.9253 2.2161 2.5528 2.8978
3.1831 3.4842 3.7152 3.9228 4.1070 4.2370
4.3941 4.5503 4.6897 4.8290 4.9581 5.0404
5.0899 5.0497 4.9627 4.9029 4.7860 4.7112
4.6766 4.6373 4.6429 4.6186 4.6008 4.6064
4.5821 4.5522 4.5606 4.5709 4.5559 4.5990
4.6597 4.7467 4.8814 4.9908 5.0937 5.1919
5.2424 5.2367 5.2685 5.3190 5.3677 5.4434
5.5192 5.5940 5.5987 5.6005 5.5687 5.4808
5.4285 5.3695 5.3639 5.3798 5.3537 5.3237
5.2555 5.1507 5.0516 4.9272 4.7766 4.6560
4.5513 4.4213 4.2857 4.0930 3.9369 3.7956
3.5993 3.5675 3.4459 3.3327 3.3748 3.3122
3.3206 3.2308 3.0896 3.0475 3.0194 2.9577
2.8661 2.8670 2.8361 2.7959 2.7071 2.5986
2.5238 2.3929 2.2816 2.1619 2.0356 1.9272
1.8383 1.7691 1.6849 1.6101 1.5606 1.5278
1.5129 1.5260 1.5288 1.5175 1.5353 1.4689
1.3819 1.3062 1.1734 1.0986 1.0097 0.9209
0.8620 0.7498 0.6282 0.5216 0.4037 0.2831
0.1943 0.1082 0.0456 -0.0339 -0.1882 -0.3079
-0.4445 -0.6175 -0.7297 -0.8213 -0.8541 -0.8943
-0.9018 -0.9326 -1.0738 -1.1028 -1.2010 -1.3217
-1.3544 -1.4133 -1.4760 -1.4928 -1.4301 -1.4881
-1.5068 -1.4937 -1.5704 -1.5966 -1.6695 -1.7219
-1.7677 -1.8538 -1.9080 -1.9838 -2.0894 -2.2185
-2.3990 -2.5963 -2.7572 -2.9376 -3.1219 -3.2752
-3.4118 -3.5455 -3.7363 -3.8981 -4.0889 -4.3049
-4.4788 -4.7126 -4.9352 -5.1428 -5.3860 -5.6310
-5.8348 -6.0237 -6.2323 -6.3838 -6.5035 -6.5905
-6.6325 -6.6438 -6.6251 -6.6148 -6.5933 -6.5849
-6.5231 -6.4296 -6.3576 -6.2463 -6.1696 -6.0555
-5.9386 -5.8816 -5.7750 -5.6759 -5.6151 -5.5664
-5.4710 -5.3195 -5.1746 -4.9969 -4.7762 -4.5518
-4.3320 -4.0935 -3.8223 -3.5838 -3.3828 -3.1649
-2.9236 -2.6533 -2.3634 -2.1063 -1.8594 -1.6340
-1.4339 -1.2169 -1.0336 -0.8026 -0.5529 -0.2826
0.0213 0.2934 0.6432 0.9462 1.2015 1.4708
1.6635 1.8505 2.0301 2.1825 2.3377 2.4948
2.6398 2.8119 3.0129 3.1738 3.3440 3.4955
3.5946 3.6807 3.6909 3.7012 3.6891 3.6171
3.5694 3.4880 3.4085 3.3505 3.2926 3.2280
3.1121 2.9746 2.8661 2.7427 2.5921 2.4883
2.3845 2.2620 2.1788 2.0422 1.9038 1.7907
1.5990 1.4325 1.2847 1.1529 1.0528 0.9434
0.8256 0.6974 0.5646 0.3683 0.1878 -0.0227
-0.2574 -0.4874 -0.7166 -0.8952 -1.1767 -1.4030
-1.5797 -1.8004 -1.9669 -2.1614 -2.3382 -2.4869
-2.6140 -2.7805 -2.9208 -3.0096 -3.1602 -3.2659
-3.3781 -3.4847 -3.5277 -3.5735 -3.5773 -3.5511
-3.5025 -3.4089 -3.3033 -3.1649 -3.0087 -2.7936
-2.5561 -2.3438 -2.1165 -1.9435 -1.7611 -1.5975
-1.4254 -1.2524 -1.1561 -1.0055 -0.9064 -0.8185
-0.7259 -0.7231 -0.7137 -0.6866 -0.6660 -0.6660
-0.6268 -0.6118 -0.5968 -0.5491 -0.5688 -0.5763
-0.5884 -0.5922 -0.5632 -0.5669 -0.5239 -0.4294
-0.3387 -0.2284 -0.1292 -0.0357 0.0952 0.2140
0.3281 0.4655 0.5946 0.7648 0.9453 1.1239
1.3455 1.5513 1.7982 2.0731 2.3181 2.5828
2.8213 3.0186 3.2150 3.3814 3.5030 3.6293
3.7536 3.8939 4.0202 4.1137 4.2661 4.3905
4.4606 4.5672 4.6505 4.6832 4.6785 4.6411
4.5981 4.5570 4.4681 4.3830 4.3316 4.2596
4.2138 4.1445 4.0940 4.0894 4.0585 4.0753
4.1043 4.1287 4.1661 4.1932 4.2549 4.3278
4.3802 4.4756 4.5944 4.6795 4.7562 4.8235
4.8665 4.8824 4.8768 4.8805 4.8824 4.8721
4.8497 4.8141 4.7468 4.6664 4.5888 4.4784
4.3746 4.2839 4.1745 4.0950 4.0445 4.0043
3.9650 3.8921 3.8126 3.7237 3.5984 3.4553
3.3085 3.1392 2.9662 2.8269 2.6576 2.4874
2.3153 2.1059 1.9216 1.6869 1.4381 1.2212
0.9734 0.7330 0.4852 0.2551 0.0625 -0.1676
-0.4004 -0.5977 -0.7969 -1.0008 -1.1963 -1.4160
-1.6292 -1.8200 -2.0613 -2.2867 -2.5167 -2.7758
-2.9890 -3.2611 -3.5361 -3.7802 -4.0589 -4.3113
-4.5461 -4.7864 -5.0053 -5.1942 -5.3503 -5.5028
-5.6935 -5.8507 -5.9797 -6.1134 -6.2042 -6.2949
-6.3528 -6.3594 -6.4005 -6.4239 -6.4239 -6.4417
-6.4492 -6.4726 -6.4538 -6.3921 -6.3716 -6.3426
-6.2995 -6.2995 -6.3154 -6.3182 -6.2986 -6.2565
-6.1911 -6.0910 -5.9582 -5.8048 -5.6636 -5.4831
-5.2933 -5.1315 -4.9164 -4.7322 -4.5601 -4.3328
-4.1524 -3.9307 -3.6689 -3.4547 -3.2106 -2.9806
-2.7318 -2.4681 -2.2408 -2.0024 -1.7592 -1.5282
-1.3337 -1.1523 -1.0260 -0.8521 -0.7474 -0.7707
-0.6220 -0.5846 -0.5650 -0.5014 -0.5856 -0.5351
-0.4808 -0.4303 -0.3630 -0.2723 -0.0965 0.0737
0.3075 0.5039 0.7424 1.0295 1.3072 1.6112
1.8571 2.1601 2.4650 2.7241 3.0027 3.2571
3.5470 3.8631 4.1100 4.3793 4.6384 4.8030
5.0639 5.3154 5.5343 5.8251 6.0187 6.2263
6.4573 6.6041 6.7743 6.9146 7.0605 7.2569
7.3981 7.5590 7.7002 7.8115 7.9433 8.0434
8.1219 8.1762 8.2276 8.1893 8.1434 8.0976
7.9789 7.9199 7.8236 7.7282 7.6384 7.4701
7.3027 7.1129 6.8772 6.6163 6.3544 6.0795
5.8289 5.5820 5.3285 5.1116 4.8441 4.5748
4.2839 3.9361 3.6003 3.2076 2.8569 2.5137
2.1471 1.8871 1.6159 1.3643 1.1632 0.9584
0.7723 0.6162 0.4862 0.3599 0.2514 0.1149
-0.0048 -0.1526 -0.2975 -0.4359 -0.6304 -0.7511
-0.9194 -1.0718 -1.2411 -1.4450 -1.5628 -1.6675
-1.7685 -1.9397 -2.0528 -2.1585 -2.3353 -2.5111
-2.7327 -2.8805 -3.0226 -3.2134 -3.3976 -3.6034
-3.8269 -4.0569 -4.2720 -4.5320 -4.7770 -4.9594
-5.1511 -5.3260 -5.5326 -5.7674 -5.9853 -6.2135
-6.4304 -6.6315 -6.7923 -6.8915 -6.9897 -7.1225
-7.2066 -7.2777 -7.3544 -7.3815 -7.4301 -7.4264
-7.3806 -7.3628 -7.3076 -7.2216 -7.1449 -7.0738
-6.9822 -6.8681 -6.7250 -6.5791 -6.4547 -6.3014
-6.1508 -5.9946 -5.8057 -5.6149 -5.3662 -5.1268
-4.8948 -4.5900 -4.3132 -4.0242 -3.6763 -3.3639
-3.0413 -2.7252 -2.4503 -2.1473 -1.8864 -1.6582
-1.4150 -1.1822 -0.9456 -0.7071 -0.4920 -0.2367
0.0467 0.2842 0.5638 0.8210 1.0529 1.3176
1.5486 1.7814 2.0246 2.2088 2.3743 2.5445
2.6465 2.7681 2.8625 2.9214 3.0140 3.0682
3.1468 3.2207 3.2740 3.3086 3.3114 3.3582
3.4180 3.4938 3.5517 3.6107 3.6761 3.7313
3.8098 3.8463 3.9118 3.9670 4.0128 4.1016
4.1344 4.1792 4.2017 4.1774 4.1792 4.1821
4.1886 4.2269 4.2718 4.2980 4.3364 4.3513
4.3532 4.3728 4.3354 4.3102 4.3223 4.2905
4.2382 4.1793 4.1035 4.0586 4.0287 3.9651
3.9230 3.8547 3.7809 3.7547 3.6976 3.6378
3.6022 3.5695 3.5349 3.4769 3.4012 3.3385
3.2581 3.1393 3.0402 2.9233 2.7943 2.6587
2.4726 2.3257 2.1752 2.0124 1.8694 1.6842
1.5205 1.3653 1.2016 1.0427 0.8837 0.7097
0.5508 0.4245 0.2618 0.0925 -0.1151 -0.3264
-0.5051 -0.7117 -0.9035 -1.0877 -1.2794 -1.4393
-1.6076 -1.8190 -2.0014 -2.2108 -2.4540 -2.6822
-2.9337 -3.1638 -3.3779 -3.5856 -3.7576 -3.9035
-4.0251 -4.1149 -4.1775 -4.2168 -4.2383 -4.2392
-4.1803 -4.1036 -4.0550 -3.9680 -3.8727 -3.8006
-3.7053 -3.6407 -3.5425 -3.4238 -3.3583 -3.2302
-3.0834 -2.9917 -2.8795 -2.7579 -2.6616 -2.5699
-2.4998 -2.4680 -2.4315 -2.4437 -2.4736 -2.4839
-2.5568 -2.6429 -2.7654 -2.9188 -3.0385 -3.1685
-3.3059 -3.4125 -3.5070 -3.5949 -3.6706 -3.7819
-3.8970 -3.9933 -4.1074 -4.1654 -4.1878 -4.2028
-4.1326 -4.0737 -4.0045 -3.8801 -3.7819 -3.6604
-3.5126 -3.3620 -3.2059 -3.0590 -2.9431 -2.8196
-2.7111 -2.6204 -2.4773 -2.3511 -2.2295 -2.1005
-2.0210 -1.9405 -1.8414 -1.7788 -1.7039 -1.6226
-1.5674 -1.5038 -1.4701 -1.4253 -1.3467 -1.2990
-1.2420 -1.1690 -1.0877 -1.0054 -0.9436 -0.8576
-0.7622 -0.6827 -0.5537 -0.4040 -0.2600 -0.0655
0.1384 0.3376 0.5732 0.7893 1.0118 1.2765
1.5234 1.7946 2.0938 2.3716 2.6643 2.9608
3.1992 3.4199 3.5929 3.7154 3.8436 3.9268
3.9979 4.0783 4.1064 4.1438 4.1784 4.1587
4.1531 4.0979 4.0512 3.9838 3.8641 3.7856
3.5640 3.4003 3.2956 3.0973 2.9402 2.7092
2.4745 2.2528 1.9676 1.6478 1.2989 0.9922
0.6864 0.3469 0.0234 -0.3114 -0.6088 -0.9165
-1.2541 -1.5262 -1.7965 -1.9910 -2.1603 -2.3221
-2.4334 -2.5662 -2.6522 -2.7597 -2.8140 -2.8748
-2.9702 -2.9449 -2.9730 -3.0048 -3.0197 -3.0496
-3.0609 -3.0824 -3.0431 -3.0132 -2.9430 -2.8430
-2.7560 -2.6541 -2.6092 -2.5652 -2.5185 -2.4259
-2.2865 -2.1640 -1.9817 -1.7497 -1.5244 -1.3074
-1.0820 -0.8566 -0.6257 -0.3666 -0.0879 0.1926
0.4844 0.7799 1.0567 1.3803 1.7030 2.0031
2.3566 2.6718 3.0085 3.3779 3.6874 4.0203
4.3607 4.6768 4.9808 5.2969 5.6027 5.9075
6.1806 6.4088 6.6445 6.8147 6.9858 7.1429
7.2645 7.4020 7.4861 7.5722 7.6638 7.7433
7.8219 7.8574 7.8733 7.8911 7.8696 7.8228
7.8134 7.7302 7.6058 7.4955 7.3047 7.1046
6.8427 6.5725 6.3377 6.0544 5.7841 5.5232
5.2632 4.9873 4.7049 4.4075 4.1242 3.8193
3.4723 3.1955 2.8813 2.5334 2.2024 1.8470
1.5215 1.1709 0.7687 0.3816 0.0094 -0.3928
-0.7762 -1.1306 -1.5131 -1.8367 -2.2098 -2.5914
-2.8813 -3.3199 -3.6594 -3.9034 -4.2055 -4.4290
-4.7142 -4.9705 -5.1977 -5.4297 -5.6550 -5.8673
-6.0057 -6.1254 -6.1872 -6.2507 -6.3097 -6.3022
-6.2853 -6.2339 -6.1638 -6.0992 -5.9973 -5.9075
-5.8112 -5.7093 -5.6204 -5.4418 -5.2697 -5.1080
-4.9125 -4.7591 -4.5506 -4.3271 -4.1690 -4.0035
-3.8529 -3.7473 -3.6360 -3.5742 -3.5630 -3.4873
-3.4377 -3.4012 -3.2900 -3.2357 -3.1759 -3.1001
-3.0412 -2.9374 -2.8925 -2.8532 -2.7700 -2.7307
-2.7260 -2.7027 -2.7242 -2.7475 -2.7503 -2.8130
-2.7878 -2.7541 -2.7541 -2.6896 -2.6568 -2.6213
-2.5858 -2.5427 -2.4660 -2.4268 -2.3735 -2.2968
-2.2351 -2.1415 -2.0480 -1.9601 -1.8170 -1.6814
-1.5486 -1.3887 -1.2849 -1.1708 -1.0427 -0.9482
-0.8313 -0.7388 -0.6733 -0.5835 -0.5096 -0.4648
-0.4058 -0.3609 -0.3273 -0.2871 -0.2712 -0.2599
-0.2618 -0.2637 -0.2618 -0.2740 -0.2880 -0.2992
-0.3151 -0.3600 -0.3881 -0.4049 -0.4601 -0.5171
-0.5601 -0.5901 -0.6303 -0.6883 -0.7462 -0.8005
-0.8472 -0.8931 -0.9295 -0.9660 -0.9782 -0.9866
-0.9884 -0.9501 -0.9464 -0.9323 -0.9005 -0.8818
-0.8528 -0.8659 -0.9127 -0.9426 -0.9744 -1.0090
-0.9922 -1.0062 -1.0315 -1.0165 -1.0651 -1.1007
-1.1427 -1.2409 -1.2840 -1.3279 -1.3588 -1.3279
-1.3186 -1.3223 -1.3008 -1.2952 -1.2643 -1.2278
-1.2091 -1.1371 -1.1586 -1.1184 -0.9894 -0.9725
-0.8734 -0.7668 -0.7210 -0.5994 -0.4844 -0.4638
-0.4301 -0.3824 -0.3880 -0.3478 -0.3319 -0.3619
-0.3572 -0.3656 -0.4002 -0.4507 -0.4956 -0.5003
-0.5180 -0.5779 -0.6059 -0.6256 -0.6443 -0.6443
-0.6602 -0.6751 -0.7135 -0.7565 -0.7892 -0.8294
-0.8379 -0.8510 -0.8659 -0.8098 -0.7687 -0.7490
-0.6527 -0.5685 -0.4909 -0.3628 -0.2459 -0.1196
0.0216 0.1862 0.3807 0.5761 0.8099 1.1054
1.4309 1.7432 2.0472 2.3586 2.6401 2.9328
3.2236 3.4789 3.7567 4.0101 4.2402 4.4740
4.6685 4.8593 5.0239 5.1688 5.3334 5.4812
5.6252 5.7692 5.8637 5.9357 5.9955 6.0011
6.0189 6.0217 6.0058 6.0039 5.9880 5.9834
5.9703 5.9581 5.9778 6.0404 6.0638 6.0937
6.1517 6.1629 6.2125 6.2396 6.2321 6.2321
6.2144 6.1723 6.1068 6.0423 5.9563 5.8712
5.7898 5.7281 5.6729 5.5794 5.4494 5.3428
5.2754 5.1296 4.9827 4.8406 4.6891 4.5582
4.3739 4.1981 4.0176 3.8081 3.6015 3.4032
3.1919 2.9796 2.7851 2.5662 2.3549 2.1426
1.9060 1.6797 1.4608 1.2270 0.9951 0.7931
0.5827 0.3760 0.1937 0.0048 -0.1580 -0.3384
-0.5274 -0.6760 -0.8537 -1.0511 -1.2353 -1.4261
-1.6131 -1.8188 -2.0489 -2.2443 -2.4697 -2.7147
-2.9280 -3.1627 -3.3684 -3.5695 -3.8098 -4.0231
-4.1979 -4.3906 -4.5683 -4.7057 -4.8413 -4.9386
-5.0256 -5.0854 -5.1294 -5.1836 -5.1799 -5.1948
-5.1818 -5.1453 -5.1724 -5.1275 -5.0443 -4.9882
-4.9283 -4.8236 -4.7085 -4.5888 -4.4243 -4.2830
-4.1297 -3.9782 -3.8229 -3.6583 -3.5302 -3.3703
-3.2179 -3.0430 -2.8475 -2.6455 -2.3958 -2.1705
-1.9067 -1.6337 -1.3503 -1.0464 -0.7985 -0.5526
-0.3562 -0.1692 0.0534 0.2713 0.4668 0.6716
0.8773 1.0587 1.2224 1.3271 1.4768 1.5983
1.6872 1.8003 1.8789 1.9397 1.9387 1.9481
1.9500 1.9210 1.8826 1.8396 1.8134 1.7573
1.7059 1.6423 1.5731 1.5114 1.4553 1.4347
1.4104 1.3823 1.3524 1.3384 1.3299 1.2944
1.2523 1.2046 1.1616 1.1223 1.0943 1.0784
1.0709 1.0774 1.0569 1.0438 1.0475 1.0354
1.0185 0.9980 0.9746 0.9577 0.9484 0.9372
0.9147 0.8773 0.8792 0.8652 0.8455 0.8661
0.8502 0.8362 0.8221 0.7754 0.7249 0.6641
0.5771 0.5014 0.4107 0.2835 0.1844 0.0497
-0.0925 -0.2196 -0.3702 -0.4768 -0.5834 -0.6826
-0.7331 -0.7602 -0.7901 -0.8060 -0.8013 -0.8210
-0.8425 -0.9070 -0.9846 -1.0304 -1.1118 -1.1707
-1.2212 -1.2811 -1.3054 -1.3362 -1.3381 -1.3147
-1.3138 -1.3222 -1.3175 -1.3381 -1.3755 -1.4083
-1.4681 -1.5064 -1.5523 -1.6280 -1.6785 -1.7206
-1.7702 -1.8216 -1.8553 -1.8712 -1.8721 -1.8833
-1.8730 -1.8656 -1.9086 -1.9161 -1.9254 -1.9497
-1.9843 -2.0386 -2.0704 -2.1162 -2.1732 -2.2406
-2.2976 -2.3462 -2.4201 -2.4744 -2.4931 -2.4884
-2.4818 -2.4444 -2.3752 -2.3462 -2.2883 -2.2078
-2.1526 -2.0647 -1.9806 -1.8973 -1.7879 -1.7140
-1.6112 -1.4961 -1.4344 -1.3446 -1.2867 -1.2315
-1.1127 -1.0519 -1.0257 -0.9771 -0.9247 -0.8799
-0.8368 -0.8088 -0.7630 -0.7022 -0.6788 -0.6348
-0.5554 -0.4693 -0.3814 -0.3010 -0.2206 -0.1355
-0.0485 0.0376 0.1395 0.2424 0.3733 0.5154
0.6127 0.7446 0.8736 0.9746 1.0887 1.1710
1.2748 1.3599 1.4235 1.4993 1.5142 1.5329
1.5600 1.5974 1.6087 1.6171 1.6508 1.6526
1.6620 1.6498 1.6433 1.6105 1.5778 1.5591
1.4862 1.4431 1.3936 1.3178 1.2552 1.1897
1.1149 1.0597 1.0298 1.0195 1.0747 1.1327
1.1916 1.2916 1.3739 1.4871 1.6470 1.7957
1.9566 2.1165 2.2689 2.4503 2.6215 2.7739
2.9320 3.1078 3.3088 3.4734 3.6343 3.8297
3.9831 4.1000 4.2216 4.3385 4.4610 4.5741
4.6658 4.7855 4.8921 4.9333 4.9940 5.0146
5.0043 5.0118 4.9679 4.9538 4.9220 4.8584
4.7846 4.6723 4.5461 4.3955 4.2403 4.0626
3.8812 3.6811 3.4678 3.2481 2.9890 2.7375
2.4550 2.1689 1.9126 1.6180 1.3272 1.0635
0.7923 0.5388 0.3032 0.0582 -0.1925 -0.4450
-0.6919 -0.9079 -1.1024 -1.3072 -1.4924 -1.6757
-1.8403 -1.9702 -2.1208 -2.2368 -2.3359 -2.4360
-2.5388 -2.6604 -2.7595 -2.9008 -3.0438 -3.1121
-3.2140 -3.3478 -3.4020 -3.4675 -3.5264 -3.5526
-3.6293 -3.6816 -3.7508 -3.8584 -3.8920 -3.9435
-3.9734 -3.8948 -3.8481 -3.7845 -3.6798 -3.6302
-3.5685 -3.4534 -3.3543 -3.2804 -3.1972 -3.0794
-2.9550 -2.8774 -2.8203 -2.7511 -2.6707 -2.6464
-2.6492 -2.6380 -2.5912 -2.5398 -2.5688 -2.5884
-2.6062 -2.6249 -2.6314 -2.6492 -2.6669 -2.7249
-2.7492 -2.7698 -2.8035 -2.8138 -2.8147 -2.7782
-2.7745 -2.7240 -2.6763 -2.6772 -2.6221 -2.6183
-2.6043 -2.5585 -2.5220 -2.4556 -2.3798 -2.3284
-2.2704 -2.1937 -2.1591 -2.1161 -2.0955 -2.0871
-2.0609 -2.0357 -1.9983 -1.9768 -1.9543 -1.9253
-1.8776 -1.8487 -1.8356 -1.8234 -1.8094 -1.7579
-1.7364 -1.7299 -1.6822 -1.6251 -1.5606 -1.5064
-1.4203 -1.3016 -1.2137 -1.1136 -1.0032 -0.9238
-0.8452 -0.7498 -0.6731 -0.5749 -0.4431 -0.3430
-0.2121 -0.1017 -0.0204 0.0937 0.1732 0.2742
0.3846 0.4865 0.5969 0.6951 0.7970 0.8989
1.0009 1.0991 1.2318 1.3263 1.4376 1.5900
1.6592 1.7761 1.9099 2.0268 2.1689 2.2746
2.3905 2.4925 2.5645 2.6561 2.7440 2.8123
2.8993 2.9479 2.9975 3.0826 3.0901 3.1144
3.1443 3.1237 3.1069 3.0620 3.0489 3.0377
2.9900 2.9395 2.8825 2.8460 2.7674 2.6618
2.5804 2.4906 2.4064 2.2998 2.1979 2.0978
1.9725 1.8612 1.7425 1.6359 1.5171 1.3721
1.2506 1.1355 1.0224 0.9242 0.8475 0.7624
0.7035 0.6567 0.6053 0.6006 0.5660 0.5211
0.5006 0.4734 0.4388 0.3874 0.3706 0.3659
0.3173 0.2658 0.2331 0.1545 0.0676 -0.0044
-0.0905 -0.1709 -0.2467 -0.3233 -0.3785 -0.4178
-0.4664 -0.4692 -0.4861 -0.5422 -0.5702 -0.6170
-0.6544 -0.6778 -0.7348 -0.7498 -0.7629 -0.8003
-0.8134 -0.8798 -0.9480 -0.9939 -1.0659 -1.1416
-1.2248 -1.3071 -1.3679 -1.4446 -1.5353 -1.5812
-1.6307 -1.6840 -1.7102 -1.7111 -1.7233 -1.7027
-1.6485 -1.6644 -1.5886 -1.4811 -1.3904 -1.2594
-1.1613 -1.0098 -0.8349 -0.6160 -0.3916 -0.1999
0.0461 0.2827 0.5193 0.7334 0.9513 1.2207
1.4675 1.6770 1.8931 2.1549 2.3775 2.5711
2.7263 2.8348 3.0181 3.1612 3.2603 3.3781
3.4801 3.5885 3.6578 3.7167 3.7672 3.7859
3.7821 3.7905 3.7849 3.7606 3.7541 3.6933
3.6306 3.5820 3.4810 3.3763 3.2519 3.1013
2.9797 2.8441 2.7048 2.5421 2.3354 2.1699
2.0090 1.7911 1.5891 1.4395 1.2581 1.0869
0.8952 0.6848 0.5436 0.3669 0.2097 0.0966
-0.0287 -0.1110 -0.1980 -0.3242 -0.4215 -0.5001
-0.5983 -0.6618 -0.7282 -0.8133 -0.8573 -0.9256
-0.9592 -1.0004 -1.0864 -1.1023 -1.1435 -1.1949
-1.2304 -1.2819 -1.2847 -1.2996 -1.3473 -1.3539
-1.3314 -1.3211 -1.3099 -1.2791 -1.2323 -1.1996
-1.1949 -1.1369 -1.1023 -1.1079 -1.0443 -1.0069
-0.9527 -0.8685 -0.8031 -0.7086 -0.6141 -0.5085
-0.3841 -0.2382 -0.0886 0.0751 0.2500 0.4267
0.6306 0.8195 0.9953 1.1590 1.3264 1.4872
1.6200 1.7491 1.8847 1.9885 2.0754 2.2036
2.2877 2.3597 2.4579 2.5243 2.5907 2.6263
2.6179 2.6403 2.6684 2.6216 2.5823 2.6188
2.6599 2.6758 2.6515 2.6188 2.6020 2.5589
2.5187 2.4785 2.4411 2.4252 2.3382 2.2429
2.1578 2.0156 1.8491 1.6499 1.4479 1.2516
1.0664 0.8457 0.5997 0.4090 0.1957 0.0171
-0.1550 -0.3177 -0.4243 -0.5777 -0.6665 -0.7507
-0.8582 -0.8994 -0.9471 -0.9947 -1.0153 -1.0322
-1.0499 -1.0163 -1.0163 -1.0097 -0.9592 -0.9779
-0.9527 -0.8928 -0.8535 -0.8208 -0.8105 -0.7759
-0.7488 -0.7563 -0.7404 -0.7030 -0.7142 -0.6917
-0.6674 -0.7058 -0.6684 -0.6786 -0.7609 -0.8086
-0.8947 -0.9639 -1.0303 -1.1154 -1.1640 -1.2173
-1.2659 -1.3108 -1.3847 -1.4633 -1.5390 -1.6727
-1.8270 -1.9299 -2.0580 -2.2049 -2.3302 -2.4592
-2.6051 -2.7351 -2.8296 -2.9268 -3.0072 -3.0942
-3.1569 -3.2092 -3.2841 -3.3224 -3.3869 -3.4103
-3.4019 -3.4608 -3.5104 -3.5553 -3.5833 -3.6217
-3.6852 -3.7011 -3.7114 -3.7657 -3.7797 -3.7610
-3.8152 -3.8601 -3.9125 -3.9761 -3.9948 -4.0453
-4.0621 -4.0472 -4.0733 -4.0911 -4.0743 -4.0715
-4.0621 -4.0387 -4.0275 -3.9695 -3.9172 -3.8489
-3.7619 -3.7114 -3.6216 -3.5562 -3.4973 -3.4103
-3.3757 -3.3495 -3.3336 -3.3355 -3.3186 -3.3215
-3.3177 -3.2831 -3.2850 -3.2812 -3.2345 -3.1896
-3.1148 -3.0521 -2.9932 -2.8857 -2.7921 -2.6911
-2.5481 -2.4078 -2.2843 -2.1272 -1.9804 -1.8560
-1.6615 -1.4913 -1.3361 -1.1443 -0.9657 -0.7525
-0.5655 -0.4177 -0.2503 -0.1007 0.0218 0.1640
0.2603 0.3089 0.3791 0.3819 0.3940 0.4053
0.3697 0.3838 0.3763 0.3679 0.3669 0.3389
0.3379 0.3538 0.3651 0.3847 0.4043 0.3997
0.4043 0.4127 0.4099 0.4258 0.4240 0.4511
0.4978 0.5044 0.5184 0.5362 0.5287 0.4988
0.4866 0.4642 0.4249 0.3940 0.3604 0.3632
0.3445 0.3529 0.3866 0.3697 0.3978 0.4146
0.4137 0.4174 0.3894 0.4071 0.4548 0.4913
0.5624 0.6540 0.7307 0.8317 0.9318 1.0356
1.1544 1.2544 1.3825 1.5387 1.6921 1.8483
1.9857 2.1232 2.2569 2.3664 2.4842 2.5927
2.6806 2.7975 2.9153 3.0116 3.1154 3.2277
3.3418 3.4428 3.5307 3.6186 3.6981 3.7467
3.8000 3.8888 3.9328 3.9795 4.0590 4.0908
4.1479 4.1844 4.1881 4.2349 4.2601 4.2807
4.3003 4.3274 4.3536 4.3779 4.4238 4.4471
4.4827 4.5051 4.5173 4.5369 4.5575 4.5930
4.5968 4.6174 4.6323 4.6052 4.5706 4.5556
4.5294 4.4640 4.4275 4.3705 4.3303 4.2891
4.1928 4.1460 4.0983 4.0562 3.9936 3.9057
3.8580 3.7841 3.7149 3.6261 3.5382 3.4521
3.3315 3.2314 3.1332 3.0266 2.8807 2.7376
2.5955 2.3991 2.2177 2.0232 1.8371 1.6697
1.4695 1.2872 1.1291 0.9739 0.8476 0.7074
0.5428 0.4362 0.3174 0.1846 0.0901 -0.0052
-0.0913 -0.1605 -0.2100 -0.2428 -0.2634 -0.2933
-0.3354 -0.3718 -0.4149 -0.4597 -0.5084 -0.5692
-0.6187 -0.6786 -0.7225 -0.7478 -0.7964 -0.8497
-0.8899 -0.9039 -0.9619 -1.0059 -1.0134 -1.0274
-1.0480 -1.0975 -1.1237 -1.1658 -1.2219 -1.2967
-1.3987 -1.4828 -1.5866 -1.6932 -1.7755 -1.8475
-1.9280 -1.9860 -2.0430 -2.1225 -2.1805 -2.2796
-2.3610 -2.4367 -2.5564 -2.6527 -2.7547 -2.8276
-2.8996 -2.9857 -3.0287 -3.0483 -3.0661 -3.0913
-3.1063 -3.1044 -3.0960 -3.0923 -3.0689 -3.0530
-3.0530 -3.0464 -3.0586 -3.0259 -2.9894 -2.9828
-2.9492 -2.9202 -2.8912 -2.8734 -2.8641 -2.8641
-2.8566 -2.8379 -2.8472 -2.8211 -2.7715 -2.7406
-2.7014 -2.6303 -2.5470 -2.4844 -2.4002 -2.3151
-2.2506 -2.1767 -2.0935 -2.0131 -1.9410 -1.8915
-1.8288 -1.7465 -1.6970 -1.6483 -1.5904 -1.5370
-1.4791 -1.3725 -1.2733 -1.2256 -1.1237 -1.0367
-0.9806 -0.8880 -0.7842 -0.6655 -0.5467 -0.4073
-0.2577 -0.1324 0.0116 0.1650 0.2875 0.4025
0.5101 0.6148 0.7242 0.8000 0.8570 0.9187
0.9767 1.0244 1.0562 1.0693 1.0815 1.0684
1.0104 0.9496 0.8860 0.8037 0.7130 0.6260
0.5269 0.4231 0.3015 0.1697 0.0640 -0.0697
-0.1979 -0.3007 -0.4083 -0.5186 -0.6580 -0.7786
-0.8777 -0.9797 -1.0713 -1.1471 -1.2247 -1.2799
-1.3360 -1.3968 -1.4042 -1.4379 -1.4519 -1.4220
-1.4052 -1.3584 -1.3060 -1.2490 -1.1658 -1.0835
-0.9899 -0.8880 -0.8048 -0.6944 -0.5560 -0.4176
-0.2670 -0.1427 -0.0454 0.0977 0.2314 0.3436
0.4933 0.6158 0.7467 0.8926 1.0226 1.1470
1.2638 1.4023 1.5369 1.6576 1.7623 1.8783
2.0026 2.1111 2.2140 2.3028 2.3870 2.4684
2.5301 2.5778 2.6245 2.6423 2.6479 2.6470
2.6339 2.6292 2.6105 2.5937 2.5862 2.5591
2.5282 2.4815 2.4272 2.3571 2.2598 2.1962
2.1093 2.0045 1.9316 1.8212 1.6997 1.6136
1.5295 1.4313 1.3396 1.2395 1.1357 1.0693
0.9833 0.8982 0.8524 0.7701 0.7018 0.6588
0.6083 0.5672 0.5363 0.5391 0.5269 0.5456
0.5326 0.4858 0.5101 0.5157 0.5400 0.5447
0.5372 0.5578 0.5896 0.6279 0.5933 0.6148
0.6644 0.6925 0.7392 0.7635 0.8449 0.9113
0.9468 1.0151 1.0731 1.1479 1.2199 1.2826
1.3434 1.3892 1.4762 1.5641 1.6277 1.7137
1.7829 1.8586 1.9428 1.9690 2.0242 2.0868
2.1027 2.1083 2.0887 2.0784 2.0635 2.0064
1.9512 1.9073 1.8259 1.7464 1.6697 1.5547
1.4649 1.3480 1.2227 1.1152 0.9730 0.8711
0.7626 0.6280 0.4989 0.3539 0.2109 0.0668
-0.0772 -0.2128 -0.3269 -0.4540 -0.5756 -0.7000
-0.8637 -1.0021 -1.1695 -1.3677 -1.5323 -1.7128
-1.8998 -2.0794 -2.2646 -2.4292 -2.5994 -2.7770
-2.9341 -3.1156 -3.2933 -3.4644 -3.6776 -3.8525
-4.0208 -4.1966 -4.3220 -4.4538 -4.5539 -4.6493
-4.7493 -4.8129 -4.9205 -5.0103 -5.0720 -5.1169
-5.1617 -5.2291 -5.2497 -5.2712 -5.2740 -5.2786
-5.3011 -5.2899 -5.2908 -5.2758 -5.2515 -5.2132
-5.1870 -5.1571 -5.1243 -5.0935 -5.0093 -4.9513
-4.8466 -4.7241 -4.6399 -4.5305 -4.4473 -4.3556
-4.2743 -4.2022 -4.1237 -4.0451 -3.9675 -3.8918
-3.7917 -3.6916 -3.5906 -3.4934 -3.3475 -3.2343
-3.1679 -3.0501 -2.9828 -2.9070 -2.8041 -2.7190
-2.6134 -2.5030 -2.3786 -2.2851 -2.1972 -2.0934
-2.0120 -1.9335 -1.8390 -1.7455 -1.6548 -1.5547
-1.4668 -1.3527 -1.2349 -1.1264 -0.9955 -0.8721
-0.7477 -0.6401 -0.5139 -0.3596 -0.2314 -0.0687
0.0931 0.2829 0.5317 0.7561 1.0049 1.2527
1.4865 1.7427 1.9765 2.2019 2.4385 2.6611
2.8799 3.0997 3.2783 3.4700 3.6374 3.7683
3.9488 4.0863 4.2097 4.3668 4.4791 4.5763
4.6633 4.7269 4.7802 4.8232 4.8401 4.8419
4.8569 4.8494 4.8401 4.7942 4.7110 4.6474
4.5539 4.4557 4.3482 4.2238 4.1106 3.9853
3.8665 3.7309 3.5878 3.4635 3.3251 3.1642
3.0062 2.8780 2.7275 2.5685 2.4198 2.2337
2.0934 1.9475 1.7699 1.6548 1.5033 1.3556
1.2059 1.0348 0.9375 0.8244 0.6972 0.5943
0.4793 0.3531 0.2436 0.1296 0.0444 -0.0061
-0.0865 -0.1155 -0.1417 -0.1744 -0.1996 -0.2389
-0.2426 -0.2773 -0.3231 -0.3231 -0.3465 -0.3708
-0.3624 -0.3876 -0.3726 -0.3324 -0.3062 -0.2632
-0.2380 -0.1931 -0.1370 -0.0696 -0.0098 0.0454
0.0940 0.1314 0.1997 0.2352 0.2670 0.3362
0.4017 0.4849 0.5672 0.6364 0.7271 0.8207
0.8871 0.9768 1.0825 1.1527 1.2378 1.3154
1.4052 1.5174 1.5987 1.7091 1.8222 1.8961
1.9784 2.0682 2.1561 2.2421 2.3160 2.3918
2.4956 2.5816 2.6667 2.7649 2.8481 2.9491
3.0230 3.0960 3.1717 3.2222 3.2989 3.3550
3.3934 3.4560 3.4850 3.4859 3.5318 3.5542
3.5103 3.5084 3.4972 3.4504 3.4298 3.3775
3.3382 3.3139 3.2409 3.1867 3.1343 3.0642
3.0277 2.9735 2.9267 2.8968 2.8201 2.7668
2.7069 2.6246 2.5657 2.4881 2.3983 2.3207
2.2244 2.1412 2.0579 1.9270 1.8073 1.6754
1.5352 1.4211 1.2770 1.1358 0.9806 0.7973
0.6346 0.4503 0.2446 0.0604 -0.1136 -0.3090
-0.5073 -0.6597 -0.8383 -1.0123 -1.1572 -1.3162
-1.4275 -1.5612 -1.6800 -1.7670 -1.8867 -1.9736
-2.0840 -2.1906 -2.2710 -2.3935 -2.4852 -2.5563
-2.6432 -2.7321 -2.8106 -2.8686 -2.9257 -3.0061
-3.1080 -3.1473 -3.2090 -3.3053 -3.3605 -3.4475
-3.4970 -3.5251 -3.6018 -3.6233 -3.6467 -3.6916
-3.6850 -3.7327 -3.7402 -3.7149 -3.7430 -3.7234
-3.7159 -3.7075 -3.6691 -3.6439 -3.6065 -3.5503
-3.4989 -3.4353 -3.3381 -3.2857 -3.2230 -3.1089
-3.0416 -2.9696 -2.8929 -2.8162 -2.7274 -2.6572
-2.5450 -2.4319 -2.3299 -2.2037 -2.1317 -2.0419
-1.9250 -1.8530 -1.7922 -1.7090 -1.6108 -1.5528
-1.4948 -1.4350 -1.3583 -1.2591 -1.2264 -1.1535
-1.0637 -1.0244 -0.9552 -0.9113 -0.8645 -0.8177
-0.8028 -0.7541 -0.7027 -0.6625 -0.6382 -0.6213
-0.5774 -0.5334 -0.4942 -0.4568 -0.3997 -0.3483
-0.3174 -0.2548 -0.2323 -0.2145 -0.1743 -0.1463
-0.0836 -0.0462 -0.0116 0.0492 0.0847 0.1146
0.1614 0.1923 0.2344 0.2764 0.2764 0.2895
0.2951 0.2923 0.2998 0.2970 0.3073 0.3129
0.2970 0.3026 0.3073 0.2951 0.3036 0.3064
0.2839 0.2680 0.2437 0.2185 0.2100 0.1446
0.1006 0.0885 0.0361 0.0034 -0.0752 -0.1491
-0.1865 -0.2632 -0.3024 -0.3352 -0.4016 -0.4446
-0.4960 -0.5783 -0.6307 -0.6971 -0.8028 -0.8729
-0.9496 -1.0253 -1.0964 -1.1946 -1.2750 -1.3807
-1.5004 -1.6079 -1.7136 -1.8071 -1.9016 -2.0204
-2.1176 -2.1896 -2.3028 -2.3804 -2.4300 -2.4861
-2.5001 -2.5151 -2.5375 -2.5095 -2.5123 -2.5366
-2.5029 -2.4908 -2.4898 -2.4833 -2.4870 -2.4711
-2.4440 -2.4234 -2.3795 -2.3486 -2.3075 -2.2457
-2.2261 -2.1597 -2.1185 -2.1008 -2.0606 -2.0437
-2.0175 -1.9848 -1.9483 -1.9577 -1.9343 -1.8988
-1.8679 -1.8155 -1.8240 -1.7763 -1.7211 -1.7061
-1.6697 -1.6650 -1.6528 -1.6004 -1.5883 -1.5902
-1.5509 -1.5238 -1.4910 -1.4518 -1.4424 -1.4125
-1.3648 -1.3517 -1.3461 -1.3264 -1.3040 -1.2759
-1.2638 -1.2301 -1.1899 -1.1749 -1.1310 -1.0739
-1.0440 -1.0103 -0.9692 -0.9234 -0.8719 -0.8504
-0.8130 -0.7466 -0.6989 -0.6428 -0.5586 -0.4820
-0.4174 -0.3576 -0.3005 -0.2117 -0.1359 -0.0574
0.0464 0.1371 0.2484 0.3466 0.4196 0.5019
0.5898 0.6805 0.7600 0.8320 0.9274 1.0209
1.0892 1.1827 1.2743 1.3388 1.4211 1.4735
1.5119 1.5820 1.6157 1.6671 1.7419 1.7746
1.8242 1.8831 1.9327 1.9832 2.0112 2.0477
2.1132 2.1609 2.2151 2.2937 2.3769 2.4760
2.5667 2.6631 2.7659 2.8632 2.9707 3.0764
3.1428 3.1943 3.2644 3.3083 3.3570 3.4037
3.4337 3.4729 3.4795 3.4814 3.4823 3.4533
3.4374 3.4440 3.4327 3.4019 3.3963 3.3869
3.3757 3.3832 3.3589 3.3439 3.3411 3.3102
3.2784 3.2120 3.1625 3.1204 3.0418 2.9726
2.8679 2.7753 2.7014 2.5752 2.4601 2.3554
2.2114 2.1104 2.0000 1.8485 1.7588 1.6175
1.4745 1.3800 1.2248 1.0920 0.9545 0.8124
0.7347 0.6001 0.4607 0.3775 0.2681 0.1820
0.1026 0.0072 -0.0639 -0.1275 -0.1743 -0.2032
-0.2098 -0.2154 -0.2294 -0.2248 -0.2201 -0.2117
-0.1958 -0.1902 -0.1621 -0.1294 -0.0966 -0.0602
-0.0125 0.0530 0.0839 0.1138 0.1577 0.1923
0.2036 0.2382 0.2774 0.3027 0.3588 0.3915
0.4561 0.4981 0.5234 0.5851 0.5879 0.6038
0.6150 0.6029 0.6188 0.6188 0.6169 0.6338
0.6525 0.6646 0.6525 0.6609 0.6777 0.6786
0.6964 0.7132 0.7235 0.7170 0.7254 0.7310
0.7282 0.7441 0.7376 0.7357 0.7460 0.7478
0.7488 0.7413 0.7460 0.7535 0.7394 0.7291
0.7189 0.6796 0.6478 0.6216 0.5730 0.5421
0.5178 0.4907 0.4944 0.5019 0.5094 0.5131
0.5234 0.5272 0.5356 0.5627 0.5692 0.5926
0.6207 0.6562 0.7030 0.7142 0.7544 0.7675
0.7366 0.7451 0.6983 0.6506 0.6291 0.5674
0.5552 0.5272 0.4869 0.4795 0.4327 0.4009
0.3729 0.3308 0.2784 0.2195 0.2073 0.1690
0.0932 0.0166 -0.0461 -0.0966 -0.1742 -0.2500
-0.3192 -0.3865 -0.4707 -0.5661 -0.6240 -0.7007
-0.7755 -0.8130 -0.8775 -0.9542 -1.0439 -1.1403
-1.2291 -1.3142 -1.3834 -1.4769 -1.5583 -1.6079
-1.6584 -1.7229 -1.8155 -1.8865 -1.9277 -1.9473
-1.9829 -2.0511 -2.0848 -2.1203 -2.1792 -2.2213
-2.2522 -2.2447 -2.2400 -2.2559 -2.2681 -2.2896
-2.3027 -2.3036 -2.3148 -2.3345 -2.3289 -2.3205
-2.3233 -2.3214 -2.3551 -2.3719 -2.3448 -2.3551
-2.3541 -2.3102 -2.3008 -2.2961 -2.2765 -2.2494
-2.2138 -2.1867 -2.1306 -2.0549 -2.0006 -1.9539
-1.8959 -1.8501 -1.8005 -1.7491 -1.7042 -1.6583
-1.6518 -1.6237 -1.5938 -1.5835 -1.5442 -1.5171
-1.4825 -1.4629 -1.4610 -1.4461 -1.4236 -1.3918
-1.3479 -1.3067 -1.2880 -1.2431 -1.1982 -1.1618
-1.1253 -1.0926 -1.0308 -1.0000 -0.9607 -0.8971
-0.8447 -0.7905 -0.7306 -0.6465 -0.5885 -0.5034
-0.4258 -0.3678 -0.2621 -0.2069 -0.1097 0.0016
0.0652 0.1877 0.2925 0.3785 0.5104 0.6375
0.7572 0.8957 1.0546 1.2127 1.3632 1.5222
1.6765 1.8439 2.0067 2.1432 2.2816 2.4359
2.5724 2.6753 2.8193 2.9091 2.9549 3.0382
3.0672 3.0961 3.1438 3.1607 3.1588 3.1616
3.1635 3.1607 3.1354 3.0990 3.0802 3.0634
3.0569 3.0279 2.9923 2.9624 2.9231 2.8642
2.8128 2.7978 2.7455 2.7052 2.6725 2.6183
2.6014 2.5519 2.4808 2.4397 2.3723 2.3256
2.2741 2.2040 2.1956 2.1722 2.1236 2.0964
2.0693 2.0375 2.0170 1.9880 1.9365 1.9001
1.8589 1.8131 1.7813 1.7158 1.6466 1.6008
1.5232 1.4287 1.3072 1.1800 1.0659 0.9219
0.7844 0.6535 0.5160 0.3795 0.2242 0.0821
-0.0404 -0.1910 -0.3481 -0.4912 -0.6174 -0.7325
-0.8325 -0.9270 -1.0102 -1.0888 -1.1860 -1.2637
-1.3413 -1.4236 -1.4806 -1.5246 -1.5685 -1.6059
-1.6667 -1.6910 -1.7060 -1.7799 -1.8033 -1.8425
-1.8921 -1.9089 -1.9809 -2.0529 -2.0988 -2.1446
-2.1755 -2.2054 -2.2400 -2.2456 -2.2699 -2.3120
-2.3026 -2.3111 -2.3316 -2.3400 -2.3803 -2.3718
-2.3475 -2.3569 -2.3335 -2.3148 -2.3045 -2.2923
-2.2933 -2.2970 -2.3139 -2.3288 -2.3316 -2.3195
-2.3269 -2.3195 -2.3176 -2.3466 -2.3578 -2.4233
-2.4607 -2.4663 -2.5299 -2.5495 -2.5673 -2.6028
-2.6019 -2.6234 -2.6552 -2.6711 -2.6963 -2.7188
-2.7553 -2.7917 -2.8338 -2.9002 -2.9573 -3.0003
-3.0498 -3.0872 -3.1088 -3.1424 -3.1677 -3.1920
-3.2013 -3.1920 -3.1967 -3.2172 -3.2135 -3.1854
-3.1780 -3.1452 -3.1144 -3.0985 -3.0611 -3.0424
-2.9937 -2.9198 -2.8712 -2.7683 -2.6673 -2.6000
-2.4943 -2.4120 -2.2961 -2.1502 -2.0426 -1.9192
-1.7920 -1.6676 -1.5208 -1.3824 -1.2664 -1.1140
-0.9634 -0.8297 -0.6735 -0.5351 -0.3640 -0.2181
-0.0909 0.0727 0.1934 0.3103 0.4291 0.5665
0.7087 0.8452 1.0051 1.1398 1.2810 1.4157
1.5344 1.6794 1.8272 1.9740 2.1273 2.2817
2.4332 2.5650 2.6931 2.8138 2.9064 3.0204
3.1402 3.2206 3.3104 3.3964 3.4656 3.5685
3.6526 3.7181 3.8079 3.8574 3.9014 3.9332
3.9201 3.9136 3.9061 3.9023 3.8724 3.8500
3.8528 3.8097 3.7602 3.7452 3.7190 3.6536
3.6012 3.5460 3.5049 3.4787 3.3964 3.3459
3.3225 3.2337 3.1617 3.1056 2.9877 2.8998
2.8231 2.7287 2.6604 2.5791 2.4958 2.4023
2.3209 2.2312 2.1507 2.0965 2.0357 2.0020
1.9300 1.8655 1.8272 1.7561 1.7028 1.6504
1.5765 1.5279 1.4615 1.4054 1.3773 1.2941
1.2464 1.1791 1.0856 1.0257 0.9294 0.8583
0.7891 0.7134 0.6517 0.5871 0.5254 0.4665
0.3963 0.3019 0.2196 0.1177 0.0129 -0.0516
-0.1442 -0.2312 -0.3013 -0.4126 -0.5005 -0.6118
-0.7352 -0.8194 -0.9307 -1.0130 -1.0953 -1.2000
-1.2851 -1.3824 -1.4796 -1.5582 -1.6059 -1.6723
-1.7265 -1.7686 -1.8200 -1.8331 -1.8808 -1.9042
-1.8855 -1.8902 -1.8715 -1.8752 -1.8733 -1.8182
-1.8172 -1.8219 -1.7564 -1.7115 -1.6536 -1.5862
-1.5470 -1.4721 -1.4301 -1.3983 -1.3421 -1.3253
-1.2926 -1.2290 -1.1972 -1.1364 -1.0644 -1.0251
-0.9606 -0.9035 -0.8643 -0.8306 -0.8166 -0.7913
-0.7389 -0.7128 -0.6931 -0.6595 -0.6538 -0.6230
-0.5874 -0.5744 -0.5426 -0.5154 -0.4893 -0.4528
-0.4359 -0.4126 -0.3733 -0.3667 -0.3359 -0.3060
-0.2985 -0.2489 -0.2087 -0.1666 -0.1077 -0.0600
0.0214 0.0999 0.1747 0.2654 0.3131 0.3721
0.4628 0.5301 0.5881 0.6629 0.7321 0.8116
0.9004 0.9724 1.0781 1.1960 1.2923 1.4213
1.5466 1.6374 1.7561 1.8581 1.9478 2.0638
2.1368 2.2434 2.3827 2.4800 2.5987 2.6810
2.7493 2.8363 2.8653 2.9242 2.9906 3.0168
3.0850 3.1374 3.1851 3.2478 3.2674 3.3020
3.3665 3.3964 3.4039 3.4329 3.4432 3.4292
3.4311 3.4441 3.4460 3.4451 3.4282 3.3908
3.3656 3.3216 3.2730 3.2160 3.1552 3.1028
3.0130 2.9204 2.8288 2.7203 2.6128 2.4856
2.3378 2.2116 2.0601 1.8908 1.7720 1.6009
1.4298 1.2727 1.0828 0.9528 0.7826 0.5918
0.4263 0.2449 0.0943 -0.0908 -0.2900 -0.4490
-0.6145 -0.7988 -0.9746 -1.1410 -1.3038 -1.4693
-1.6498 -1.8022 -1.9481 -2.1015 -2.2231 -2.3502
-2.4840 -2.5896 -2.6981 -2.7973 -2.8842 -3.0049
-3.0946 -3.1302 -3.1891 -3.2517 -3.2920 -3.3116
-3.3107 -3.3144 -3.2910 -3.2658 -3.2471 -3.2237
-3.2022 -3.1405 -3.0703 -3.0011 -2.9347 -2.8749
-2.7982 -2.7215 -2.6439 -2.5691 -2.4746 -2.3830
-2.3128 -2.2165 -2.1445 -2.0912 -2.0201 -1.9415
-1.8621 -1.7723 -1.6797 -1.6021 -1.5123 -1.4272
-1.3412 -1.2327 -1.1457 -1.0840 -1.0082 -0.9241
-0.8511 -0.7557 -0.6669 -0.5996 -0.5023 -0.4135
-0.3480 -0.2545 -0.1507 -0.0450 0.0682 0.1748
0.3038 0.4460 0.5788 0.7162 0.8621 0.9921
1.1090 1.2437 1.3671 1.4737 1.5766 1.6739
1.8067 1.9086 1.9881 2.1041 2.2032 2.2995
2.4005 2.4744 2.5548 2.6324 2.6745 2.7512
2.8157 2.8560 2.9195 2.9326 2.9672 3.0243
3.0318 3.0580 3.0832 3.0813 3.0767 3.0832
3.0813 3.0757 3.0682 3.0495 3.0402 3.0056
2.9541 2.9036 2.8634 2.8185 2.7503 2.6876
2.6203 2.5726 2.4931 2.3669 2.2434 2.1172
2.0171 1.8983 1.7768 1.6542 1.4953 1.3606
1.2100 1.0567 0.9014 0.6994 0.5217 0.3422
0.1495 -0.0263 -0.2049 -0.4013 -0.5921 -0.7810
-0.9830 -1.1513 -1.3552 -1.5525 -1.7059 -1.8882
-2.0266 -2.1828 -2.3427 -2.4446 -2.5877 -2.6962
-2.8010 -2.9104 -2.9777 -3.1002 -3.1928 -3.2498
-3.3284 -3.4041 -3.4986 -3.5837 -3.6454 -3.7146
-3.8035 -3.8876 -3.9428 -4.0167 -4.0868 -4.1364
-4.1990 -4.2262 -4.2533 -4.2701 -4.2664 -4.2926
-4.2870 -4.2523 -4.2421 -4.2430 -4.2290 -4.1906
-4.1261 -4.0719 -4.0214 -3.9213 -3.8353 -3.7651
-3.6510 -3.5388 -3.4284 -3.3106 -3.2031 -3.0862
-2.9618 -2.8542 -2.7355 -2.5961 -2.4877 -2.3960
-2.2857 -2.1613 -2.0397 -1.9312 -1.7947 -1.6610
-1.5375 -1.4010 -1.3187 -1.2111 -1.0970 -1.0250
-0.8988 -0.7978 -0.7202 -0.6332 -0.5705 -0.4817
-0.4087 -0.3508 -0.2685 -0.2077 -0.1357 -0.0562
0.0186 0.1047 0.1907 0.2833 0.3488 0.4311
0.5293 0.5769 0.6312 0.6826 0.7210 0.7827
0.8323 0.8874 0.9333 0.9585 0.9987 1.0249
1.0810 1.1166 1.1334 1.2101 1.2540 1.2886
1.3513 1.3821 1.3896 1.4196 1.4457 1.4682
1.5224 1.5346 1.5411 1.5580 1.5505 1.5598
1.5561 1.5617 1.5561 1.5112 1.5131 1.5093
1.4962 1.5140 1.5075 1.5065 1.5056 1.4766
1.4355 1.4233 1.4074 1.3784 1.3868 1.3775
1.3747 1.3812 1.3681 1.3812 1.3981 1.4111
1.4355 1.4691 1.5121 1.5598 1.5823 1.6141
1.6842 1.7113 1.7469 1.7983 1.8011 1.8236
1.8432 1.8526 1.8647 1.8507 1.8731 1.8844
1.8563 1.8498 1.8292 1.7955 1.7600 1.7085
1.6749 1.6534 1.6001 1.5673 1.5299 1.4542
1.4261 1.4037 1.3391 1.2961 1.2438 1.2082
1.1727 1.0764 1.0193 0.9698 0.9043 0.8547
0.8005 0.7481 0.6817 0.5966 0.5124 0.4769
0.4255 0.3619 0.3263 0.2628 0.2169 0.1748
0.1374 0.1253 0.1047 0.0916 0.0869 0.0617
0.0682 0.0748 0.0196 0.0084 0.0046 -0.0262
-0.0487 -0.0823 -0.1020 -0.1338 -0.1833 -0.2104
-0.2376 -0.2843 -0.2946 -0.3021 -0.3161 -0.3152
-0.3442 -0.3610 -0.3488 -0.3320 -0.3180 -0.3086
-0.2974 -0.2750 -0.2535 -0.2469 -0.2441 -0.2441
-0.2151 -0.1768 -0.1758 -0.1637 -0.1459 -0.1450
-0.1478 -0.1571 -0.1590 -0.1543 -0.1665 -0.1683
-0.1281 -0.1066 -0.0898 -0.0393 -0.0066 0.0467
0.0739 0.0757 0.1244 0.1580 0.1954 0.2534
0.3086 0.3610 0.3965 0.4180 0.4582 0.5031
0.5302 0.5564 0.5920 0.6537 0.7079 0.7360
0.7715 0.8173 0.8678 0.9277 0.9698 0.9978
1.0221 1.0418 1.0530 1.0811 1.1157 1.1381
1.1746 1.1952 1.2101 1.1961 1.1961 1.2316
1.2045 1.1914 1.2316 1.2494 1.2400 1.2260
1.2054 1.2298 1.2531 1.2036 1.2232 1.2372
1.1877 1.1877 1.1540 1.1073 1.0848 1.0334
0.9922 0.9604 0.9043 0.8389 0.7846 0.7135
0.6518 0.5957 0.5200 0.4769 0.4330 0.3526
0.2983 0.2562 0.1870 0.1309 0.0711 0.0412
0.0028 -0.0767 -0.1337 -0.2067 -0.2488 -0.2843
-0.3348 -0.3516 -0.3844 -0.4330 -0.4498 -0.4629
-0.5078 -0.5312 -0.5639 -0.6069 -0.6331 -0.6771
-0.6817 -0.7014 -0.7519 -0.7481 -0.7612 -0.7837
-0.8005 -0.8426 -0.8304 -0.8183 -0.8557 -0.8547
-0.8332 -0.8388 -0.8005 -0.7678 -0.7556 -0.7089
-0.6930 -0.6714 -0.6481 -0.6181 -0.5910 -0.5817
-0.5630 -0.5592 -0.5461 -0.5499 -0.5592 -0.5714
-0.5667 -0.5517 -0.5826 -0.5920 -0.6219 -0.6453
-0.6583 -0.7032 -0.7238 -0.7696 -0.8454 -0.8809
-0.9118 -0.9604 -0.9838 -1.0315 -1.0895 -1.1269
-1.1820 -1.2363 -1.2821 -1.3055 -1.3326 -1.3644
-1.3869 -1.4289 -1.4785 -1.5271 -1.5496 -1.5692
-1.6104 -1.6197 -1.6206 -1.6487 -1.6618 -1.6768
-1.6814 -1.6683 -1.7132 -1.7123 -1.6908 -1.7282
-1.7160 -1.7207 -1.7534 -1.7450 -1.7478 -1.7852
-1.7880 -1.7908 -1.8124 -1.8049 -1.8236 -1.8208
-1.8170 -1.8488 -1.8470 -1.8516 -1.8741 -1.8993
-1.9236 -1.9236 -1.9526 -1.9956 -1.9956 -2.0143
-2.0377 -2.0461 -2.0648 -2.0330 -2.0069 -2.0143
-1.9695 -1.9302 -1.9161 -1.8741 -1.8273 -1.7749
-1.7085 -1.6421 -1.5748 -1.5252 -1.4850 -1.4130
-1.3504 -1.2877 -1.2035 -1.1446 -1.0960 -1.0287
-0.9651 -0.9183 -0.8613 -0.8229 -0.7846 -0.7322
-0.6995 -0.6555 -0.6331 -0.6237 -0.5770 -0.5386
-0.5152 -0.4769 -0.4404 -0.3918 -0.3591 -0.3310
-0.2889 -0.2478 -0.2104 -0.1926 -0.1599 -0.1430
-0.1225 -0.1075 -0.1421 -0.1486 -0.1571 -0.1767
-0.1832 -0.2038 -0.1870 -0.1645 -0.1926 -0.1954
-0.1870 -0.2038 -0.2057 -0.2141 -0.1917 -0.1711
-0.2094 -0.2113 -0.1973 -0.1889 -0.1636 -0.1645
-0.1477 -0.1150 -0.1140 -0.1122 -0.0991 -0.0953
-0.0673 -0.0252 0.0057 0.0608 0.1113 0.1497
0.2030 0.2329 0.2619 0.2844 0.2909 0.3236
0.3395 0.3489 0.3629 0.3601 0.3573 0.3760
0.3601 0.3255 0.3321 0.3405 0.3554 0.3405
0.3377 0.3545 0.3423 0.3274 0.3096 0.2890
0.2675 0.2694 0.2507 0.2432 0.2301 0.1965
0.1862 0.1619 0.1478 0.1142 0.1039 0.1123
0.0927 0.0768 0.0814 0.0945 0.0992 0.1235
0.1188 0.1170 0.1319 0.1188 0.1216 0.1450
0.1534 0.1619 0.1946 0.2124 0.2292 0.2479
0.2825 0.3293 0.3265 0.3367 0.3583 0.3489
0.3695 0.3919 0.3891 0.4041 0.4106 0.4125
0.4424 0.4396 0.4237 0.4275 0.3872 0.3442
0.3152 0.2834 0.2816 0.2769 0.2423 0.2432
0.2479 0.2011 0.1918 0.1347 0.0880 0.0908
0.0291 0.0141 -0.0261 -0.0738 -0.1009 -0.1673
-0.2075 -0.2571 -0.3169 -0.3880 -0.4582 -0.5068
-0.5461 -0.6040 -0.6723 -0.7256 -0.7995 -0.8668
-0.9155 -0.9800 -1.0239 -1.0286 -1.0623 -1.0819
-1.0716 -1.0941 -1.0866 -1.0707 -1.0529 -1.0108
-0.9809 -0.9407 -0.9005 -0.8650 -0.8182 -0.7602
-0.7004 -0.6396 -0.5676 -0.5152 -0.4619 -0.3880
-0.3478 -0.3001 -0.2477 -0.2056 -0.1664 -0.1131
-0.0420 -0.0280 0.0422 0.1263 0.1572 0.2180
0.2638 0.3302 0.4004 0.4574 0.5070 0.5603
0.6557 0.7202 0.7651 0.8184 0.8867 0.9549
0.9914 1.0690 1.1569 1.1962 1.2617 1.3346
1.3917 1.4609 1.5245 1.6002 1.6741 1.7330
1.7985 1.8415 1.8649 1.8901 1.9387 1.9958
2.0669 2.1351 2.1763 2.2511 2.3156 2.3558
2.4073 2.4241 2.4316 2.4372 2.4222 2.4176
2.4091 2.3858 2.3792 2.3502 2.3194 2.2829
2.2006 2.1417 2.1108 2.0790 2.0267 1.9677
1.9416 1.8929 1.8284 1.7891 1.7367 1.6853
1.6423 1.5740 1.4992 1.4384 1.3440 1.2346
1.1467 1.0410 0.9559 0.8783 0.7810 0.6987
0.6127 0.5229 0.4275 0.3190 0.2068 0.1067
-0.0083 -0.1056 -0.1822 -0.2945 -0.3917 -0.4731
-0.5694 -0.6751 -0.7751 -0.8574 -0.9556 -1.0510
-1.1483 -1.2409 -1.3091 -1.3989 -1.4522 -1.4896
-1.5644 -1.6168 -1.6710 -1.7244 -1.7646 -1.8422
-1.9086 -1.9544 -2.0068 -2.0573 -2.1106 -2.1405
-2.1667 -2.1985 -2.2322 -2.2602 -2.2518 -2.2686
-2.2770 -2.2537 -2.2452 -2.2256 -2.2050 -2.1807
-2.1573 -2.1396 -2.1330 -2.1246 -2.0937 -2.0638
-2.0264 -1.9862 -1.9348 -1.8871 -1.8786 -1.8525
-1.8328 -1.8132 -1.7795 -1.7879 -1.7627 -1.7402
-1.7290 -1.6972 -1.6832 -1.6439 -1.6093 -1.5728
-1.5504 -1.5457 -1.5279 -1.5336 -1.5008 -1.4447
-1.4204 -1.3802 -1.3316 -1.3016 -1.2885 -1.2605
-1.2053 -1.1539 -1.1155 -1.0772 -1.0379 -0.9921
-0.9369 -0.8958 -0.8630 -0.8041 -0.7555 -0.7321
-0.6994 -0.6956 -0.6984 -0.6947 -0.6769 -0.6180
-0.5937 -0.5741 -0.5451 -0.5451 -0.5497 -0.5488
-0.5451 -0.5507 -0.5572 -0.5647 -0.5619 -0.5619
-0.5600 -0.5460 -0.5310 -0.5226 -0.5077 -0.4787
-0.4572 -0.4459 -0.4450 -0.4038 -0.3608 -0.3290
-0.2907 -0.2495 -0.1542 -0.1233 -0.0765 0.0385
0.1255 0.2134 0.2845 0.3490 0.4191 0.4986
0.5491 0.6015 0.6763 0.7315 0.8044 0.8624
0.9157 0.9858 1.0597 1.1242 1.1579 1.1897
1.2299 1.2945 1.3580 1.3983 1.4806 1.5544
1.6012 1.6601 1.6882 1.7302 1.7592 1.7733
1.8116 1.8107 1.8341 1.8556 1.8687 1.9042
1.9173 1.9285 1.9238 1.9135 1.9173 1.9323
1.9107 1.8986 1.9229 1.9051 1.8780 1.8472
1.8397 1.8359 1.7901 1.7564 1.7564 1.7359
1.6975 1.7162 1.7059 1.6938 1.7022 1.6891
1.7293 1.7228 1.6966 1.7013 1.7144 1.7377
1.7172 1.7041 1.7181 1.7293 1.7022 1.6844
1.6966 1.6611 1.6395 1.6208 1.5797 1.5451
1.5011 1.4909 1.4722 1.4291 1.4254 1.3945
1.3674 1.3824 1.3179 1.2889 1.3020 1.2617
1.2645 1.2449 1.2112 1.2178 1.1757 1.1430
1.1579 1.1149 1.0859 1.0635 0.9999 0.9821
0.9541 0.9082 0.8774 0.8288 0.7885 0.7596
0.6894 0.6501 0.6127 0.5258 0.4762 0.4276
0.3752 0.3322 0.2723 0.2228 0.1648 0.0937
0.0292 -0.0494 -0.1317 -0.1971 -0.2420 -0.3000
-0.3888 -0.4478 -0.5244 -0.6021 -0.6638 -0.7592
-0.8471 -0.9275 -1.0061 -1.0884 -1.1968 -1.2913
-1.3745 -1.4671 -1.5382 -1.6130 -1.6934 -1.7467
-1.8150 -1.8692 -1.9216 -2.0123 -2.0731 -2.1283
-2.2059 -2.2564 -2.2975 -2.3265 -2.3490 -2.3948
-2.4070 -2.4350 -2.4874 -2.5136 -2.5659 -2.5893
-2.6024 -2.6305 -2.6221 -2.6351 -2.6754 -2.6754
-2.6754 -2.6735 -2.6604 -2.6735 -2.6398 -2.6005
-2.5912 -2.5715 -2.5257 -2.4986 -2.4687 -2.3761
-2.3134 -2.2237 -2.1591 -2.1199 -2.0310 -1.9824
-1.9150 -1.8299 -1.7692 -1.7046 -1.6233 -1.5700
-1.5148 -1.4297 -1.3670 -1.2688 -1.1529 -1.0781
-0.9799 -0.9032 -0.8424 -0.7498 -0.7002 -0.6423
-0.5478 -0.4431 -0.3336 -0.2560 -0.1859 -0.0914
-0.0073 0.0516 0.1274 0.1788 0.2387 0.2845
0.2985 0.3575 0.3939 0.4323 0.4893 0.5183
0.5436 0.5810 0.5959 0.6137 0.6371 0.6399
0.6520 0.6539 0.6923 0.7240 0.7091 0.7231
0.7334 0.7166 0.7175 0.7250 0.7128 0.7119
0.6848 0.6502 0.6605 0.6202 0.5969 0.6240
0.5828 0.5819 0.5894 0.5464 0.5744 0.5567
0.5351 0.5744 0.5576 0.5464 0.5567 0.5539
0.5679 0.5894 0.5847 0.6081 0.6455 0.6614
0.6867 0.6829 0.6782 0.7016 0.6885 0.6867
0.7082 0.6876 0.6932 0.6960 0.6838 0.6997
0.6623 0.6371 0.6380 0.5987 0.5763 0.5557
0.5202 0.5099 0.4781 0.4370 0.4444 0.4220
0.3921 0.3996 0.3771 0.3565 0.3706 0.3622
0.3668 0.3902 0.3837 0.3949 0.3911 0.3911
0.4351 0.4594 0.5090 0.5408 0.5464 0.6100
0.6708 0.6979 0.7222 0.7727 0.8494 0.8821
0.9018 0.9981 1.0617 1.0523 1.0963 1.1664
1.2291 1.3086 1.3226 1.3478 1.4311 1.4713
1.5321 1.5844 1.5947 1.6462 1.6630 1.6555
1.7135 1.7350 1.7229 1.7631 1.7752 1.8108
1.8332 1.8126 1.8669 1.8940 1.8837 1.9174
1.9249 1.9482 1.9669 1.9538 1.9959 2.0296
2.0240 2.0296 2.0399 2.0305 2.0118 1.9819
1.9744 2.0062 1.9464 1.8856 1.8669 1.8182
1.8024 1.7621 1.7144 1.6780 1.6004 1.5499
1.5199 1.4376 1.3740 1.3161 1.2244 1.1786
1.1122 1.0355 0.9728 0.9027 0.8457 0.7783
0.7353 0.6904 0.6315 0.5838 0.5202 0.4585
0.3912 0.3220 0.2425 0.1817 0.1228 0.0395
-0.0110 -0.0577 -0.1251 -0.2064 -0.2794 -0.3504
-0.4262 -0.5010 -0.5842 -0.6637 -0.7516 -0.8386
-0.9003 -0.9845 -1.0612 -1.1070 -1.1799 -1.2323
-1.2847 -1.3651 -1.4165 -1.4605 -1.5175 -1.5381
-1.5465 -1.5596 -1.5606 -1.6101 -1.6260 -1.6279
-1.6344 -1.5989 -1.6185 -1.6372 -1.6223 -1.6036
-1.5671 -1.5129 -1.4652 -1.4165 -1.3735 -1.3380
-1.2650 -1.2304 -1.1762 -1.0920 -1.0471 -0.9789
-0.9209 -0.8620 -0.7750 -0.7105 -0.6487 -0.5636
-0.4813 -0.4009 -0.3158 -0.2578 -0.1737 -0.0811
-0.0521 0.0293 0.1378 0.2013 0.2790 0.3304
0.3659 0.4239 0.4445 0.4408 0.4735 0.4950
0.5072 0.5380 0.5418 0.5651 0.5670 0.5633
0.6044 0.5913 0.5997 0.6212 0.5960 0.6035
0.6072 0.5932 0.5895 0.5857 0.5801 0.5810
0.5866 0.5530 0.5614 0.5745 0.5623 0.5895
0.5577 0.5520 0.5661 0.5203 0.5128 0.4959
0.4623 0.4501 0.4174 0.4090 0.3893 0.3332
0.3164 0.2902 0.2537 0.2144 0.1499 0.1256
0.1265 0.0863 0.0527 0.0424 0.0050 -0.0100
-0.0371 -0.0783 -0.0811 -0.1269 -0.1596 -0.1409
-0.1652 -0.1952 -0.2054 -0.2307 -0.2298 -0.2531
-0.3074 -0.3373 -0.3859 -0.4289 -0.4617 -0.4953
-0.5290 -0.5758 -0.6319 -0.6581 -0.6796 -0.7535
-0.7899 -0.8348 -0.9134 -0.9620 -1.0462 -1.1135
-1.1631 -1.2295 -1.2893 -1.3510 -1.3969 -1.4389
-1.4885 -1.5203 -1.5306 -1.5427 -1.5427 -1.5493
-1.5624 -1.5689 -1.5755 -1.5876 -1.5979 -1.5886
-1.5960 -1.5960 -1.5764 -1.5783 -1.5624 -1.5624
-1.5783 -1.5586 -1.5661 -1.5764 -1.5830 -1.5923
-1.5867 -1.6045 -1.5970 -1.5530 -1.5605 -1.5642
-1.5474 -1.5540 -1.5418 -1.5465 -1.5474 -1.5343
-1.5455 -1.5399 -1.5156 -1.5016 -1.4819 -1.4399
-1.4193 -1.3632 -1.3145 -1.2884 -1.2117 -1.1528
-1.0967 -1.0424 -0.9760 -0.8975 -0.8170 -0.7347
-0.6412 -0.5253 -0.4261 -0.3036 -0.2082 -0.1175
-0.0221 0.0546 0.1434 0.2163 0.2986 0.3641
0.4305 0.5091 0.5876 0.6652 0.7363 0.8167
0.8822 0.9449 1.0094 1.0646 1.1235 1.1974
1.2572 1.3423 1.4349 1.4966 1.5799 1.6640
1.7482 1.8118 1.8529 1.9165 1.9904 2.0502
2.1335 2.2186 2.2653 2.3374 2.3907 2.4402
2.4935 2.4973 2.5206 2.5422 2.5571 2.5870
2.5796 2.5870 2.6142 2.5917 2.5927 2.6170
2.6170 2.6198 2.6469 2.6684 2.6796 2.6946
2.6834 2.7002 2.6890 2.6497 2.6759 2.6693
2.6581 2.6768 2.6329 2.6132 2.6226 2.5964
2.5871 2.5871 2.5590 2.5496 2.5487 2.5141
2.4823 2.4299 2.3785 2.3346 2.2756 2.2233
2.1653 2.1260 2.0746 1.9942 1.9240 1.8726
1.7800 1.6902 1.6379 1.5471 1.4845 1.4153
1.3311 1.2722 1.1768 1.0889 0.9973 0.8916
0.8242 0.7382 0.6307 0.5605 0.4670 0.3866
0.3090 0.2229 0.1724 0.0929 0.0200 -0.0427
-0.1165 -0.2035 -0.2802 -0.3195 -0.3896 -0.4392
-0.4859 -0.5402 -0.5813 -0.6589 -0.6907 -0.7151
-0.7534 -0.7730 -0.8226 -0.8516 -0.8768 -0.9330
-0.9732 -1.0153 -1.0629 -1.1181 -1.1873 -1.2313
-1.2790 -1.3463 -1.4192 -1.4538 -1.4978 -1.5866
-1.6343 -1.6914 -1.7484 -1.7924 -1.8550 -1.8775
-1.9186 -1.9869 -2.0037 -2.0542 -2.0926 -2.1057
-2.1674 -2.1590 -2.1665 -2.2057 -2.2011 -2.2329
-2.2581 -2.3067 -2.3694 -2.3825 -2.3946 -2.4348
-2.4638 -2.4760 -2.4835 -2.4807 -2.5003 -2.5162
-2.5031 -2.5059 -2.5153 -2.5134 -2.5218 -2.5209
-2.5209 -2.5134 -2.4910 -2.4769 -2.4592 -2.4339
-2.4068 -2.3946 -2.3684 -2.3460 -2.3254 -2.2777
-2.2422 -2.2160 -2.1805 -2.1683 -2.1515 -2.1066
-2.0804 -2.0168 -1.9794 -1.9495 -1.8756 -1.8279
-1.7456 -1.6717 -1.6025 -1.5071 -1.4566 -1.3893
-1.3014 -1.2397 -1.1630 -1.0732 -0.9872 -0.9067
-0.8432 -0.7609 -0.6645 -0.5963 -0.5373 -0.4719
-0.4214 -0.3569 -0.2970 -0.2746 -0.2343 -0.1951
-0.1156 -0.0473 -0.0258 0.0462 0.0911 0.1266
0.2033 0.2379 0.2903 0.3679 0.4250 0.5026
0.5708 0.6242 0.6803 0.7495 0.8168 0.8617
0.9374 1.0066 1.0665 1.1376 1.1890 1.2778
1.3330 1.3555 1.4172 1.4602 1.5154 1.5715
1.5883 1.6220 1.6501 1.6557 1.6847 1.7108
1.7305 1.7567 1.7782 1.8053 1.8324 1.8268
1.8371 1.8651 1.8689 1.8670 1.8595 1.8530
1.8502 1.8324 1.8231 1.8259 1.7959 1.7735
1.7623 1.7361 1.7174 1.6819 1.6594 1.6491
1.5940 1.5603 1.5341 1.4658 1.4312 1.3761
1.3330 1.3190 1.2517 1.2059 1.1619 1.1095
1.0890 1.0394 0.9852 0.9823 0.9562 0.9318
0.9440 0.9300 0.9412 0.9477 0.9375 0.9552
0.9496 0.9468 0.9552 0.9421 0.9449 0.9459
0.9337 0.9347 0.9393 0.9384 0.9038 0.8916
0.8842 0.8430 0.8234 0.7963 0.7588 0.6850
0.6083 0.5540 0.4876 0.4287 0.3642 0.3137
0.2482 0.1734 0.0921 0.0098 -0.0538 -0.1305
-0.1876 -0.2549 -0.2960 -0.3316 -0.4008 -0.4344
-0.4924 -0.5401 -0.5495 -0.5934 -0.6224 -0.6467
-0.6795 -0.7047 -0.7356 -0.7533 -0.7711 -0.7730
-0.7992 -0.8020 -0.7935 -0.8216 -0.8113 -0.8094
-0.7935 -0.7739 -0.7702 -0.7580 -0.7692 -0.7674
-0.7524 -0.7468 -0.7402 -0.7122 -0.7038 -0.6972
-0.6869 -0.7028 -0.6907 -0.6907 -0.7206 -0.7412
-0.7674 -0.7814 -0.7758 -0.7870 -0.7823 -0.7814
-0.7889 -0.7833 -0.7711 -0.7804 -0.8207 -0.8010
-0.7898 -0.8038 -0.7870 -0.7842 -0.7767 -0.7935
-0.7991 -0.7655 -0.7786 -0.7804 -0.7552 -0.7552
-0.7253 -0.7150 -0.7094 -0.6738 -0.6542 -0.6233
-0.6037 -0.5850 -0.5569 -0.5382 -0.5018 -0.4690
-0.4438 -0.4054 -0.3802 -0.3568 -0.3316 -0.3119
-0.2970 -0.2708 -0.2362 -0.2296 -0.1978 -0.1772
-0.1894 -0.1464 -0.1080 -0.1015 -0.0893 -0.0875
-0.0809 -0.0547 -0.0379 -0.0248 -0.0342 -0.0463
-0.0295 -0.0136 0.0117 0.0229 0.0425 0.0743
0.0640 0.0612 0.0584 0.0397 0.0491 0.0715
0.1014 0.1164 0.1192 0.1145 0.1024 0.1220
0.1061 0.0986 0.1127 0.0996 0.1389 0.1361
0.1304 0.1847 0.1800 0.1809 0.1978 0.2165
0.2473 0.2483 0.2773 0.3147 0.3250 0.3437
0.3708 0.3783 0.4054 0.4278 0.4119 0.4419
0.4503 0.4334 0.4447 0.4447 0.4428 0.4419
0.4260 0.4007 0.3783 0.3390 0.3222 0.3109
0.2642 0.2464 0.2249 0.2071 0.2109 0.1903
0.1763 0.1510 0.1463 0.1566 0.1323 0.1220
0.1323 0.1248 0.1117 0.1305 0.1239 0.1258
0.1258 0.0809 0.0856 0.0874 0.0809 0.0987
0.0865 0.0631 0.0594 0.0313 0.0164 0.0145
-0.0285 -0.0276 -0.0613 -0.1080 -0.1202 -0.1875
-0.2333 -0.2492 -0.2932 -0.3362 -0.3773 -0.4381
-0.4933 -0.5634 -0.6280 -0.6682 -0.7075 -0.7177
-0.7477 -0.8019 -0.8206 -0.8346 -0.8646 -0.8739
-0.8795 -0.9029 -0.9151 -0.9487 -0.9880 -0.9964
-1.0301 -1.0357 -1.0338 -1.0544 -1.0320 -1.0170
-1.0077 -0.9777 -0.9525 -0.9356 -0.9104 -0.8702
-0.8272 -0.8094 -0.7907 -0.7252 -0.7009 -0.6729
-0.5971 -0.5681 -0.5307 -0.4886 -0.4821 -0.4353
-0.3960 -0.3764 -0.3016 -0.2745 -0.2548 -0.2109
-0.2305 -0.2230 -0.2071 -0.2314 -0.2296 -0.2352
-0.2717 -0.2717 -0.2913 -0.3147 -0.3147 -0.3558
-0.3558 -0.3586 -0.3792 -0.3783 -0.3951 -0.3876
-0.3614 -0.3586 -0.3586 -0.3352 -0.3352 -0.3409
-0.3306 -0.3212 -0.2838 -0.2511 -0.2417 -0.2062
-0.1697 -0.1576 -0.1370 -0.1117 -0.0771 -0.0575
-0.0594 -0.0378 -0.0061 -0.0023 0.0145 0.0575
0.0828 0.1230 0.1454 0.1539 0.1922 0.1978
0.2053 0.2193 0.2343 0.2811 0.3016 0.3175
0.3699 0.3774 0.3680 0.4017 0.4279 0.4354
0.4475 0.4569 0.4615 0.4756 0.4756 0.4793
0.5139 0.5457 0.5672 0.5915 0.6177 0.6383
0.6607 0.6692 0.7010 0.7103 0.7094 0.7458
0.7515 0.7645 0.7365 0.7197 0.7627 0.7197
0.7056 0.7159 0.6673 0.6617 0.6289 0.5784
0.5597 0.5177 0.4559 0.4260 0.4064 0.3727
0.3624 0.3297 0.3166 0.3072 0.2624 0.2493
0.2268 0.1829 0.1483 0.1015 0.0791 0.0594
-0.0107 -0.0481 -0.0790 -0.1547 -0.2249 -0.2847
-0.3259 -0.3614 -0.4194 -0.4783 -0.5129 -0.5550
-0.5980 -0.6494 -0.7121 -0.7411 -0.7878 -0.8374
-0.8458 -0.8701 -0.9197 -0.9384 -0.9739 -1.0085
-1.0076 -1.0506 -1.0450 -1.0609 -1.1002 -1.0749
-1.1058 -1.1011 -1.0955 -1.1161 -1.0946 -1.0927
-1.1002 -1.1021 -1.0974 -1.0862 -1.0581 -1.0656
-1.0534 -1.0113 -1.0319 -1.0329 -1.0216 -0.9982
-0.9833 -0.9964 -0.9580 -0.9225 -0.9010 -0.8814
-0.8673 -0.8570 -0.8552 -0.8430 -0.8561 -0.8486
-0.8496 -0.8823 -0.8795 -0.8832 -0.8748 -0.8776
-0.9103 -0.8944 -0.9103 -0.9440 -0.9365 -0.9244
-0.9328 -0.9580 -0.9618 -0.9608 -0.9758 -0.9992
-0.9851 -0.9880 -0.9898 -0.9702 -0.9992 -0.9898
-0.9543 -0.9721 -0.9646 -0.9113 -0.8860 -0.8477
-0.8084 -0.7794 -0.7261 -0.7158 -0.6878 -0.6157
-0.5802 -0.5335 -0.4689 -0.4212 -0.3530 -0.3053
-0.2651 -0.1893 -0.1313 -0.0874 -0.0472 -0.0023
0.0567 0.0651 0.0819 0.1333 0.1483 0.1792
0.1857 0.1820 0.1941 0.2156 0.2315 0.2259
0.2587 0.2643 0.2568 0.2764 0.2970 0.3017
0.2989 0.3148 0.3138 0.3101 0.2961 0.2942
0.2811 0.2792 0.2886 0.2830 0.3288 0.3307
0.3279 0.3643 0.3634 0.3615 0.3756 0.3980
0.4167 0.4401 0.4429 0.4747 0.5121 0.5130
0.5420 0.5364 0.5682 0.6056 0.6000 0.6524
0.6655 0.6673 0.7178 0.7300 0.7571 0.8020
0.8039 0.8263 0.8478 0.8591 0.8937 0.9114
0.9208 0.9180 0.9124 0.9142 0.9142 0.9329
0.9385 0.9563 0.9788 0.9750 1.0087 1.0134
0.9919 0.9984 0.9947 1.0040 1.0003 0.9909
1.0012 0.9760 0.9666 0.9657 0.9311 0.9348
0.9236 0.9002 0.8965 0.8553 0.8254 0.7936
0.7440 0.7253 0.6926 0.6449 0.6337 0.6150
0.5813 0.5523 0.5000 0.4635 0.4392 0.3905
0.3522 0.3045 0.2690 0.2194 0.1427 0.1109
0.0679 0.0286 -0.0163 -0.0714 -0.1042 -0.1575
-0.2108 -0.2716 -0.3211 -0.3688 -0.4109 -0.4380
-0.4857 -0.5091 -0.5334 -0.5605 -0.5671 -0.5923
-0.6120 -0.6036 -0.6241 -0.6447 -0.6447 -0.6569
-0.6438 -0.6344 -0.6325 -0.6241 -0.6213 -0.6157
-0.5979 -0.5886 -0.5895 -0.5783 -0.5905 -0.5802
-0.5418 -0.5362 -0.5306 -0.5072 -0.4895 -0.4754
-0.4605 -0.4446 -0.4193 -0.4043 -0.3557 -0.3080
-0.2875 -0.2136 -0.1734 -0.1481 -0.0826 -0.0565
-0.0191 0.0286 0.0586 0.1222 0.1633 0.1867
0.2493 0.2924 0.3363 0.4083 0.4523 0.5149
0.5879 0.6374 0.6805 0.7469 0.8236 0.8787
0.9489 1.0050 1.0676 1.1471 1.2088 1.2809
1.3201 1.3501 1.4239 1.4829 1.5137 1.5324
1.5418 1.5754 1.5979 1.5960 1.5970 1.6026
1.6203 1.6100 1.5708 1.5633 1.5296 1.4623
1.4314 1.3865 1.3183 1.2687 1.2023 1.1172
1.0471 0.9564 0.8619 0.7908 0.6992 0.5963
0.4766 0.3784 0.2989 0.1848 0.0932 -0.0031
-0.1023 -0.1986 -0.3174 -0.4071 -0.4848 -0.5858
-0.6522 -0.7073 -0.7821 -0.8495 -0.9318 -0.9907
-1.0590 -1.1263 -1.1768 -1.2610 -1.3264 -1.4012
-1.4611 -1.5303 -1.6229 -1.6612 -1.7276 -1.7903
-1.8183 -1.8772 -1.9446 -1.9969 -2.0372 -2.0867
-2.1531 -2.2130 -2.2438 -2.2794 -2.3224 -2.3514
-2.3822 -2.3850 -2.3972 -2.4252 -2.4140 -2.4290
-2.4533 -2.4374 -2.4598 -2.4851 -2.4776 -2.4729
-2.4411 -2.4327 -2.4421 -2.4112 -2.4159 -2.3991
-2.3645 -2.3617 -2.3205 -2.2943 -2.2672 -2.2148
-2.1671 -2.1176 -2.0512 -2.0016 -1.9502 -1.8894
-1.8660 -1.7800 -1.7126 -1.6612 -1.5574 -1.4854
-1.3909 -1.2890 -1.2132 -1.1478 -1.0430 -0.9318
-0.8551 -0.7307 -0.6166 -0.5081 -0.3968 -0.3117
-0.2032 -0.1209 -0.0284 0.0913 0.1624 0.2578
0.3691 0.4374 0.5346 0.6207 0.6805 0.7852
0.8629 0.9433 1.0565 1.1144 1.1799 1.2753
1.3258 1.3819 1.4623 1.5175 1.5643 1.5914
1.6428 1.6942 1.6989 1.7457 1.7878 1.8074
1.8261 1.8317 1.8682 1.8925 1.8785 1.8747
1.8878 1.8654 1.8373 1.8411 1.8205 1.8037
1.7906 1.7597 1.7550 1.7204 1.6606 1.6185
1.5493 1.5091 1.4754 1.4034 1.3847 1.3585
1.3043 1.2856 1.2444 1.1949 1.1678 1.1266
1.0864 1.0499 0.9723 0.9162 0.9078 0.8666
0.8264 0.7806 0.7366 0.7254 0.6889 0.6646
0.6412 0.5936 0.5618 0.5346 0.5038 0.4785
0.4523 0.4364 0.4177 0.3757 0.3467 0.3317
0.3083 0.2980 0.2821 0.2382 0.2092 0.1961
0.1522 0.1082 0.0904 0.0596 0.0315 -0.0050
-0.0414 -0.0470 -0.0788 -0.0985 -0.1078 -0.1368
-0.1434 -0.1686 -0.2107 -0.2088 -0.2126 -0.2238
-0.2135 -0.2444 -0.2528 -0.2509 -0.2902 -0.2949
-0.3089 -0.3023 -0.2799 -0.2967 -0.2687 -0.2472
-0.2500 -0.2341 -0.2266 -0.2266 -0.2182 -0.1873
-0.1836 -0.1658 -0.1462 -0.1462 -0.1059 -0.1022
-0.0620 -0.0152 -0.0255 0.0203 0.0736 0.0970
0.1288 0.1550 0.1578 0.1971 0.2176 0.2289
0.2756 0.2784 0.3046 0.3476 0.3598 0.3850
0.3972 0.4150 0.4570 0.4608 0.4842 0.4982
0.4954 0.5459 0.5599 0.5824 0.6310 0.6450
0.6899 0.7544 0.7844 0.8283 0.8807 0.9059
0.9359 0.9705 1.0228 1.0780 1.1163 1.1668
1.2117 1.2370 1.2707 1.3062 1.3352 1.3717
1.3960 1.4268 1.4680 1.4942 1.5119 1.5437
1.5652 1.5680 1.5942 1.6055 1.6195 1.6251
1.6073 1.6372 1.6447 1.6316 1.6625 1.6812
1.6840 1.6906 1.6747 1.6681 1.6747 1.6503
1.6401 1.6195 1.5896 1.6101 1.5718 1.5288
1.5306 1.4914 1.4820 1.4586 1.4278 1.4353
1.4081 1.3894 1.3829 1.3707 1.3857 1.3904
1.3642 1.3632 1.3651 1.3380 1.3445 1.3389
1.3249 1.3249 1.2922 1.2997 1.2997 1.2557
1.2557 1.2407 1.2323 1.2669 1.2361 1.2033
1.2174 1.1856 1.1631 1.1921 1.1949 1.1772
1.1678 1.1566 1.1547 1.1472 1.1154 1.1126
1.1042 1.0902 1.0836 1.0285 1.0135 0.9826
0.9200 0.9003 0.8405 0.8106 0.7965 0.7376
0.7002 0.6591 0.6011 0.5627 0.5104 0.4458
0.3916 0.3187 0.2728 0.2382 0.1653 0.1054
0.0662 0.0138 -0.0348 -0.0694 -0.1181 -0.1527
-0.1919 -0.2378 -0.2761 -0.2948 -0.2883 -0.3294
-0.3780 -0.4014 -0.4304 -0.4575 -0.4856 -0.5221
-0.5585 -0.5828 -0.6184 -0.6586 -0.6829 -0.7184
-0.7605 -0.7961 -0.8344 -0.8718 -0.9204 -0.9700
-1.0009 -1.0486 -1.0981 -1.1318 -1.1916 -1.2365
-1.2721 -1.3254 -1.3516 -1.3824 -1.4095 -1.4273
-1.4385 -1.4460 -1.4619 -1.4806 -1.4825 -1.4647
-1.4928 -1.4900 -1.4647 -1.4554 -1.4245 -1.4348
-1.4151 -1.3862 -1.3759 -1.3487 -1.3338 -1.3113
-1.2795 -1.2562 -1.2337 -1.1823 -1.1598 -1.1486
-1.1103 -1.0934 -1.0832 -1.0822 -1.0551 -1.0345
-1.0327 -1.0252 -1.0009 -0.9859 -1.0009 -0.9943
-1.0046 -0.9943 -0.9934 -0.9915 -0.9663 -0.9803
-0.9691 -0.9644 -0.9709 -0.9475 -0.9429 -0.9457
-0.9232 -0.8933 -0.8840 -0.8793 -0.8643 -0.8400
-0.7970 -0.8101 -0.8101 -0.7521 -0.7390 -0.7306
-0.7212 -0.6932 -0.6717 -0.6969 -0.6950 -0.6717
-0.6950 -0.7296 -0.5968 -0.4743 -0.6202 -0.7381
-0.7025 -0.6081 -0.5155 -0.5548 -0.5894 -0.5482
-0.5155 -0.5155 -0.5174 -0.4762 -0.4416 -0.4070
-0.4051 -0.4107 -0.3892 -0.3687 -0.3434 -0.3144
-0.2929 -0.3041 -0.2873 -0.2779 -0.2995 -0.2920
-0.2892 -0.2854 -0.2807 -0.2770 -0.2705 -0.2677
-0.2415 -0.2228 -0.1835 -0.1321 -0.1040 -0.0825
-0.0928 -0.0292 0.0578 0.0877 0.1261 0.1485
0.1990 0.2514 0.2832 0.3159 0.3533 0.4029
0.4281 0.4515 0.4992 0.5301 0.5478 0.5880
0.6329 0.6601 0.6591 0.6900 0.7339 0.7349
0.7395 0.7601 0.8022 0.8059 0.7966 0.8106
0.7882 0.7882 0.7835 0.7573 0.7695 0.7891
0.7844 0.7872 0.8069 0.7900 0.7639 0.7508
0.7442 0.7330 0.7003 0.6984 0.7040 0.6919
0.6760 0.6470 0.6545 0.6442 0.6021 0.5993
0.5899 0.5731 0.5525 0.5132 0.4983 0.4824
0.4478 0.4356 0.4309 0.3991 0.3561 0.3393
0.3197 0.2832 0.2626 0.2205 0.1906 0.1682
0.1177 0.0915 0.0475 -0.0002 -0.0189 -0.0544
-0.0825 -0.1012 -0.1348 -0.1657 -0.1975 -0.2199
-0.2405 -0.2695 -0.2873 -0.3097 -0.3499 -0.3752
-0.3911 -0.4051 -0.4360 -0.4706 -0.4874 -0.5126
-0.5557 -0.5903 -0.6015 -0.6436 -0.6800 -0.7072
-0.7390 -0.7577 -0.8241 -0.8848 -0.9064 -0.9447
-1.0120 -1.0307 -1.0476 -1.0728 -1.0896 -1.1401
-1.1607 -1.1822 -1.1860 -1.1794 -1.1953 -1.1869
-1.2047 -1.2000 -1.1738 -1.1691 -1.1617 -1.1448
-1.1214 -1.1055 -1.1018 -1.1102 -1.0784 -1.0616
-1.0625 -1.0326 -1.0232 -0.9802 -0.9606 -0.9727
-0.9372 -0.9138 -0.8998 -0.8858 -0.8717 -0.8502
-0.8512 -0.8474 -0.8128 -0.7661 -0.7520 -0.7427
-0.6987 -0.6894 -0.6903 -0.6557 -0.6146 -0.5846
-0.5500 -0.4883 -0.4490 -0.4032 -0.3424 -0.3060
-0.2816 -0.2611 -0.1965 -0.1208 -0.0834 -0.0488
-0.0151 0.0186 0.0672 0.0999 0.1411 0.1981
0.2374 0.2664 0.2823 0.3197 0.3543 0.3842
0.4244 0.4282 0.4422 0.4731 0.4609 0.4487
0.4675 0.4487 0.4441 0.4553 0.4104 0.3880
0.3636 0.3197 0.3131 0.2757 0.2271 0.2047
0.1551 0.1093 0.0934 0.0635 0.0242 -0.0198
-0.0432 -0.0600 -0.0983 -0.1133 -0.1404 -0.1657
-0.1769 -0.1890 -0.1975 -0.2171 -0.2180 -0.2405
-0.2704 -0.2938 -0.3293 -0.3499 -0.3770 -0.3817
-0.3966 -0.4490 -0.4490 -0.4621 -0.4827 -0.4677
-0.5135 -0.5294 -0.5332 -0.5856 -0.5949 -0.6071
-0.6211 -0.6192 -0.6332 -0.6239 -0.6239 -0.6491
-0.6613 -0.6725 -0.6903 -0.6856 -0.6735 -0.6828
-0.6678 -0.6706 -0.6716 -0.6519 -0.6735 -0.6735
-0.6678 -0.6566 -0.6454 -0.6323 -0.6042 -0.5958
-0.5865 -0.5762 -0.5407 -0.5304 -0.5285 -0.4789
-0.4668 -0.4574 -0.4368 -0.4294 -0.3892 -0.3676
-0.3667 -0.3284 -0.3041 -0.2882 -0.2573 -0.2386
-0.2218 -0.1806 -0.1460 -0.0983 -0.0731 -0.0684
-0.0057 0.0186 0.0579 0.1149 0.1102 0.1701
0.2337 0.2468 0.3057 0.3468 0.3945 0.4619
0.4563 0.4965 0.5404 0.5386 0.5769 0.6087
0.6555 0.7116 0.7462 0.7621 0.8126 0.8472
0.8444 0.8808 0.9136 0.9575 0.9874 1.0015
1.0417 1.0763 1.0950 1.1146 1.1446 1.1736
1.1988 1.2222 1.2493 1.2502 1.2493 1.2493
1.2381 1.2502 1.2540 1.2493 1.2306 1.2437
1.2484 1.2054 1.2194 1.2025 1.1754 1.1642
1.1464 1.1642 1.1530 1.1361 1.1277 1.1137
1.0875 1.0875 1.0903 1.0641 1.0548 1.0352
1.0258 0.9987 0.9547 0.9379 0.9089 0.8949
0.8631 0.7920 0.7724 0.7452 0.6966 0.6630
0.6134 0.5816 0.5367 0.4750 0.4488 0.4292
0.3852 0.3506 0.3197 0.2702 0.2477 0.2215
0.1954 0.1757 0.1299 0.1159 0.1018 0.0691
0.0626 0.0439 0.0523 0.0701 0.0523 0.0252
0.0186 0.0457 0.0495 0.0504 0.0485 0.0542
0.0701 0.0495 0.0588 0.0644 0.0532 0.0719
0.0813 0.0962 0.1084 0.0934 0.1075 0.1318
0.1215 0.1327 0.1383 0.1374 0.1636 0.1421
0.1271 0.1318 0.1271 0.1402 0.1337 0.1224
0.1262 0.1065 0.0682 0.0738 0.0616 0.0177
-0.0001 -0.0244 -0.0646 -0.1039 -0.1338 -0.1721
-0.2030 -0.2217 -0.2329 -0.2554 -0.2722 -0.3021
-0.3620 -0.3704 -0.4031 -0.4387 -0.4377 -0.4910
-0.5154 -0.5172 -0.5425 -0.5537 -0.5771 -0.6182
-0.6397 -0.6603 -0.7211 -0.7417 -0.7538 -0.7828
-0.7669 -0.8071 -0.8436 -0.8473 -0.8913 -0.8941
-0.9081 -0.9193 -0.9222 -0.9661 -0.9745 -0.9483
-0.9418 -0.9577 -0.9474 -0.9381 -0.9390 -0.9390
-0.9315 -0.9034 -0.8726 -0.8352 -0.8389 -0.8305
-0.7996 -0.7968 -0.7772 -0.7557 -0.7370 -0.7426
-0.7286 -0.7014 -0.7136 -0.6799 -0.6622 -0.6612
-0.6201 -0.6042 -0.5892 -0.5705 -0.5705 -0.5537
-0.5219 -0.5191 -0.4938 -0.4733 -0.4686 -0.4274
-0.4162 -0.4059 -0.3797 -0.3844 -0.3713 -0.3414
-0.3498 -0.3339 -0.3208 -0.3274 -0.2946 -0.3040
-0.3040 -0.2563 -0.2741 -0.2656 -0.2226 -0.2273
-0.1871 -0.1487 -0.1375 -0.0889 -0.0749 -0.0534
0.0028 0.0074 0.0196 0.0589 0.0841 0.1206
0.1393 0.1571 0.2113 0.2506 0.2712 0.3039
0.3338 0.3712 0.4096 0.4227 0.4432 0.4732
0.5050 0.5452 0.5751 0.6022 0.6162 0.6265
0.6602 0.6798 0.6929 0.7182 0.7331 0.7509
0.7715 0.7836 0.7874 0.8023 0.8108 0.8023
0.8154 0.8192 0.8285 0.8239 0.8126 0.8388
0.8145 0.7995 0.8229 0.8089 0.7846 0.7621
0.7388 0.7360 0.7079 0.6658 0.6471 0.6172
0.5938 0.5695 0.5199 0.4984 0.4788 0.4171
0.3909 0.3806 0.3572 0.3198 0.2712 0.2600
0.2347 0.1926 0.1711 0.1533 0.1225 0.0851
0.0505 0.0271 0.0018 -0.0608 -0.1132 -0.1197
-0.1702 -0.2273 -0.2544 -0.3273 -0.3685 -0.4255
-0.4910 -0.5060 -0.5789 -0.6313 -0.6649 -0.7098
-0.7398 -0.8024 -0.8510 -0.8754 -0.9062 -0.9464
-0.9764 -1.0194 -1.0353 -1.0390 -1.0830 -1.0783
-1.0942 -1.1297 -1.1344 -1.1568 -1.1596 -1.1727
-1.1886 -1.1783 -1.1961 -1.2055 -1.2083 -1.2279
-1.2242 -1.2242 -1.2345 -1.2101 -1.1849 -1.1840
-1.1653 -1.1409 -1.1409 -1.1278 -1.1026 -1.0830
-1.0596 -1.0315 -1.0240 -0.9997 -0.9661 -0.9539
-0.9071 -0.8781 -0.8389 -0.8015 -0.7884 -0.7341
-0.6986 -0.6677 -0.6163 -0.5761 -0.5527 -0.5031
-0.4554 -0.4143 -0.3685 -0.3451 -0.2955 -0.2488
-0.2179 -0.1945 -0.1768 -0.1281 -0.0907 -0.0758
-0.0496 -0.0440 -0.0449 -0.0178 -0.0065 -0.0122
-0.0009 0.0019 -0.0037 0.0178 0.0131 -0.0122
-0.0084 -0.0084 -0.0168 -0.0065 0.0000 0.0075
0.0168 0.0140 0.0449 0.0627 0.0589 0.0842
0.0945 0.1066 0.1328 0.1534 0.1571 0.1534
0.1711 0.1889 0.2067 0.2310 0.2488 0.2534
0.2852 0.3226 0.3413 0.3881 0.4152 0.4489
0.4975 0.5200 0.5555 0.5845 0.6051 0.6528
0.6892 0.7182 0.7678 0.8043 0.8520 0.8978
0.9436 1.0007 1.0315 1.0727 1.1335 1.1709
1.1999 1.2363 1.2550 1.2878 1.3205 1.3196
1.3457 1.3673 1.3598 1.3635 1.3654 1.3738
1.3794 1.3719 1.3719 1.3598 1.3261 1.3093
1.2971 1.2625 1.2419 1.2251 1.2036 1.1840
1.1466 1.1138 1.0895 1.0717 1.0493 1.0222
0.9913 0.9717 0.9520 0.9230 0.9071 0.8707
0.8482 0.8211 0.7912 0.7781 0.7369 0.7042
0.6668 0.6144 0.5752 0.5462 0.4919 0.4489
0.4096 0.3189 0.2740 0.2507 0.1852 0.1394
0.0964 0.0608 0.0206 -0.0486 -0.0916 -0.1459
-0.2272 -0.2768 -0.3282 -0.3974 -0.4517 -0.5134
-0.5695 -0.6163 -0.6752 -0.7350 -0.7958 -0.8454
-0.8977 -0.9529 -0.9828 -0.9987 -1.0333 -1.0820
-1.1082 -1.1334 -1.1540 -1.1680 -1.1895 -1.1839
-1.1961 -1.2110 -1.1914 -1.2007 -1.2063 -1.1998
-1.2129 -1.2007 -1.1746 -1.1699 -1.1530 -1.1156
-1.1007 -1.0735 -1.0474 -1.0418 -0.9903 -0.9492
-0.9155 -0.8575 -0.8454 -0.8276 -0.7911 -0.7668
-0.7154 -0.6901 -0.6780 -0.6303 -0.6050 -0.5947
-0.5770 -0.5536 -0.5152 -0.4937 -0.4825 -0.4554
-0.4498 -0.4666 -0.4610 -0.4554 -0.4722 -0.4657
-0.4760 -0.4675 -0.4516 -0.4975 -0.4853 -0.4853
-0.5106 -0.4825 -0.4956 -0.4993 -0.4657 -0.4703
-0.4881 -0.4675 -0.4460 -0.4404 -0.4320 -0.4114
-0.3768 -0.3759 -0.3768 -0.3469 -0.3375 -0.3413
-0.3188 -0.2899 -0.2665 -0.2450 -0.2319 -0.2178
-0.2019 -0.1786 -0.1580 -0.1636 -0.1412 -0.1056
-0.1150 -0.0935 -0.0561 -0.0598 -0.0420 -0.0112
0.0001 0.0337 0.0599 0.0739 0.1310 0.1469
0.1600 0.2077 0.2170 0.2226 0.2451 0.2769
0.3152 0.3545 0.3872 0.4190 0.4274 0.4377
0.4667 0.4649 0.5013 0.5172 0.5041 0.5350
0.5415 0.5378 0.5228 0.5322 0.5687 0.5818
0.5752 0.5892 0.5976 0.5649 0.5771 0.5724
0.5621 0.5855 0.5836 0.5902 0.5677 0.5574
0.5855 0.5733 0.5574 0.5546 0.5481 0.5649
0.5743 0.5518 0.5602 0.5687 0.5659 0.5818
0.5696 0.5565 0.5761 0.5733 0.5668 0.5846
0.5799 0.5874 0.6061 0.5827 0.5883 0.6164
0.5902 0.5949 0.6201 0.6145 0.6425 0.6435
0.6641 0.7080 0.6931 0.7136 0.7211 0.7089
0.7342 0.7501 0.7669 0.7782 0.7679 0.7903
0.8333 0.8146 0.8277 0.8651 0.8474 0.8661
0.8642 0.8520 0.8838 0.8810 0.8792 0.9053
0.8932 0.9053 0.9287 0.9016 0.9269 0.9446
0.9306 0.9530 0.9671 0.9558 0.9699 0.9933
0.9970 1.0344 1.0494 1.0447 1.0662 1.0699
1.0784 1.0812 1.0681 1.0840 1.0858 1.0568
1.0559 1.0475 1.0222 0.9951 0.9661 0.9764
0.9774 0.9428 0.9269 0.8820 0.8520 0.8511
0.8081 0.7922 0.7651 0.7174 0.6875 0.6426
0.5893 0.5210 0.4724 0.4387 0.3901 0.3246
0.2741 0.2302 0.1525 0.0936 0.0412 -0.0167
-0.0532 -0.1056 -0.1654 -0.2131 -0.2898 -0.3356
-0.3618 -0.4291 -0.4376 -0.4591 -0.5217 -0.5470
-0.6012 -0.6246 -0.6339 -0.6704 -0.6835 -0.7022
-0.7181 -0.7256 -0.7555 -0.7864 -0.7826 -0.8013
-0.8238 -0.8359 -0.8724 -0.8621 -0.8771 -0.9276
-0.9332 -0.9323 -0.9304 -0.9360 -0.9678 -0.9790
-0.9809 -1.0052 -1.0174 -1.0080 -1.0155 -1.0295
-1.0473 -1.0744 -1.0725 -1.0987 -1.1277 -1.1202
-1.1333 -1.1464 -1.1829 -1.2175 -1.1997 -1.2109
-1.2156 -1.1698 -1.1745 -1.1745 -1.1455 -1.1464
-1.1286 -1.1202 -1.1277 -1.0884 -1.0510 -1.0333
-1.0071 -0.9959 -0.9687 -0.9257 -0.9173 -0.8827
-0.8238 -0.8191 -0.7985 -0.7462 -0.7527 -0.7340
-0.7041 -0.6957 -0.6349 -0.6349 -0.6302 -0.5947
-0.5909 -0.5638 -0.5432 -0.5030 -0.4721 -0.4656
-0.4338 -0.3880 -0.3693 -0.3580 -0.3244 -0.3047
-0.2786 -0.2468 -0.2253 -0.1963 -0.1626 -0.1271
-0.1112 -0.0943 -0.0448 -0.0064 0.0039 0.0291
0.0628 0.0740 0.0983 0.1339 0.1872 0.2311
0.2283 0.2798 0.3106 0.3013 0.3218 0.3424
0.3714 0.4023 0.4172 0.4322 0.4743 0.4930
0.5098 0.5425 0.5659 0.5977 0.6174 0.6239
0.6370 0.6791 0.6931 0.6950 0.7268 0.7305
0.7389 0.7502 0.7642 0.7773 0.7576 0.7689
0.7820 0.7679 0.7726 0.7604 0.7567 0.7548
0.7277 0.7389 0.7296 0.7062 0.7128 0.7006
0.6969 0.7043 0.6931 0.6725 0.6828 0.6884
0.6669 0.6735 0.6594 0.6407 0.6398 0.6333
0.6379 0.6379 0.6342 0.6305 0.6230 0.6249
0.6258 0.6164 0.6379 0.6548 0.6445 0.6632
0.6716 0.6791 0.7025 0.6866 0.7043 0.7530
0.7408 0.7511 0.7707 0.7605 0.7801 0.7838
0.7820 0.7876 0.7923 0.7997 0.7810 0.7745
0.7792 0.7745 0.7689 0.7558 0.7492 0.7315
0.7174 0.7156 0.6987 0.6847 0.6660 0.6510
0.6408 0.6090 0.5725 0.5360 0.4977 0.4836
0.4575 0.4201 0.4088 0.3611 0.3181 0.3106
0.2732 0.2349 0.2096 0.1853 0.1685 0.1367
0.1152 0.1236 0.0806 0.0497 0.0638 0.0264
0.0292 0.0245 -0.0092 0.0067 -0.0111 -0.0213
-0.0129 -0.0326 -0.0316 -0.0475 -0.0859 -0.0812
-0.0962 -0.1289 -0.1420 -0.1569 -0.1616 -0.1644
-0.1953 -0.2215 -0.2037 -0.2383 -0.2757 -0.2720
-0.2982 -0.2982 -0.3225 -0.3533 -0.3356 -0.3645
-0.3702 -0.3505 -0.3496 -0.3468 -0.3580 -0.3421
-0.3365 -0.3384 -0.3290 -0.3169 -0.3038 -0.2953
-0.2766 -0.2729 -0.2692 -0.2776 -0.2851 -0.2738
-0.2888 -0.3131 -0.3243 -0.3356 -0.3346 -0.3430
-0.3664 -0.3599 -0.3552 -0.3795 -0.4066 -0.4048
-0.4038 -0.4057 -0.4150 -0.4394 -0.4094 -0.3917
-0.3898 -0.3561 -0.3514 -0.3355 -0.3225 -0.3206
-0.2757 -0.2663 -0.2532 -0.2093 -0.2018 -0.1710
-0.0943 -0.0653 -0.0830 -0.0653 -0.0092 0.0628
0.0797 0.0741 0.0993 0.1124 0.1685 0.2069
0.2190 0.2770 0.3041 0.3369 0.3771 0.3874
0.4126 0.4435 0.4566 0.4781 0.5304 0.5454
0.5641 0.6146 0.6445 0.6670 0.6670 0.6941
0.7184 0.7278 0.7951 0.8568 0.8222 0.7409
0.7680 0.8391 0.8531 0.8512 0.8269 0.8138
0.8110 0.8204 0.8232 0.8017 0.7848 0.7727
0.7652 0.7549 0.7334 0.7091 0.6866 0.6558
0.6380 0.6324 0.5894 0.5651 0.5660 0.5183
0.5089 0.4987 0.4641 0.4454 0.3808 0.3434
0.3275 0.2985 0.2705 0.2405 0.2003 0.1583
0.1124 0.0610 0.0385 -0.0176 -0.0643 -0.0952
-0.1485 -0.1868 -0.2308 -0.2598 -0.2794 -0.3131
-0.3449 -0.3589 -0.4010 -0.4309 -0.4300 -0.4636
-0.4851 -0.4992 -0.5319 -0.5721 -0.5974 -0.6039
-0.6179 -0.6310 -0.6488 -0.6610 -0.6853 -0.7115
-0.7087 -0.7451 -0.7807 -0.7788 -0.8087 -0.8237
-0.8377 -0.8704 -0.8732 -0.8901 -0.9078 -0.9322
-0.9761 -0.9752 -0.9976 -1.0434 -1.0855 -1.1248
-1.1407 -1.1622 -1.1977 -1.2389 -1.2539 -1.2969
-1.3268 -1.3464 -1.3941 -1.4026 -1.4390 -1.4755
-1.4989 -1.5372 -1.5578 -1.5728 -1.5765 -1.5915
-1.5989 -1.6176 -1.6335 -1.6532 -1.6831 -1.6738
-1.6934 -1.7149 -1.7084 -1.7224 -1.7271 -1.7458
-1.7645 -1.7673 -1.7832 -1.7832 -1.7897 -1.8009
-1.7888 -1.7869 -1.8000 -1.7916 -1.7691 -1.7701
-1.7579 -1.7205 -1.7046 -1.6887 -1.6625 -1.6167
-1.5615 -1.5213 -1.4558 -1.4166 -1.3679 -1.2978
-1.2595 -1.2174 -1.1641 -1.0958 -1.0397 -0.9658
-0.8844 -0.8321 -0.7675 -0.6983 -0.6254 -0.5721
-0.5216 -0.4552 -0.4056 -0.3467 -0.2869 -0.2336
-0.1746 -0.1298 -0.0568 0.0218 0.0638 0.1349
0.1938 0.2415 0.3135 0.3687 0.4220 0.4800
0.5567 0.5997 0.6306 0.7016 0.7484 0.8185
0.8634 0.8896 0.9579 0.9822 1.0102 1.0635
1.1019 1.1524 1.1833 1.2225 1.2740 1.2917
1.3235 1.3516 1.3722 1.4133 1.4507 1.4666
1.4909 1.5078 1.5143 1.5442 1.5620 1.5798
1.5975 1.6003 1.6069 1.6050 1.5994 1.5751
1.5648 1.5667 1.5340 1.5396 1.5386 1.4937
1.4694 1.4432 1.4152 1.3909 1.3572 1.3320
1.3310 1.2936 1.2497 1.2291 1.1907 1.1795
1.1421 1.1019 1.0888 1.0505 1.0149 0.9747
0.9513 0.9345 0.8934 0.8849 0.8775 0.8475
0.8242 0.7914 0.7737 0.7596 0.7269 0.7129
0.7026 0.6904 0.6633 0.6278 0.6194 0.6016
0.5810 0.5726 0.5558 0.5221 0.5258 0.5193
0.4866 0.4819 0.4594 0.4520 0.4426 0.4192
0.4043 0.3818 0.3659 0.3519 0.3266 0.3145
0.3145 0.2790 0.2481 0.2350 0.2107 0.1957
0.1817 0.1798 0.1677 0.1424 0.1293 0.1125
0.0957 0.0742 0.0452 0.0386 0.0059 -0.0325
-0.0558 -0.0989 -0.1157 -0.1297 -0.1662 -0.2027
-0.2326 -0.2541 -0.3009 -0.3336 -0.3598 -0.3962
-0.4224 -0.4608 -0.4785 -0.5122 -0.5739 -0.6001
-0.6469 -0.6796 -0.7002 -0.7563 -0.7769 -0.8087
-0.8470 -0.8694 -0.9134 -0.9499 -0.9601 -0.9704
-1.0032 -1.0265 -1.0546 -1.0967 -1.1173 -1.1275
-1.1696 -1.1939 -1.2136 -1.2444 -1.2501 -1.2940
-1.3136 -1.3314 -1.3810 -1.3735 -1.3885 -1.4390
-1.4408 -1.4661 -1.5016 -1.5063 -1.5362 -1.5334
-1.5400 -1.5746 -1.5708 -1.5942 -1.6166 -1.6129
-1.6166 -1.6260 -1.6372 -1.6540 -1.6531 -1.6540
-1.6671 -1.6550 -1.6625 -1.6540 -1.6222 -1.6288
-1.6279 -1.6157 -1.6316 -1.6204 -1.6110 -1.6213
-1.5904 -1.5774 -1.5615 -1.5446 -1.5362 -1.4979
-1.4792 -1.4698 -1.4324 -1.3941 -1.3707 -1.3445
-1.3305 -1.3071 -1.2706 -1.2332 -1.1808 -1.1378
-1.1219 -1.0957 -1.0546 -1.0293 -0.9994 -0.9854
-0.9508 -0.9087 -0.8853 -0.8339 -0.8086 -0.7806
-0.7394 -0.7226 -0.7039 -0.6609 -0.6291 -0.6066
-0.5505 -0.5468 -0.5356 -0.4888 -0.4879 -0.4635
-0.4346 -0.4243 -0.4046 -0.3728 -0.3336 -0.3158
-0.3008 -0.2672 -0.2260 -0.2026 -0.1895 -0.1587
-0.1315 -0.1119 -0.0979 -0.0867 -0.0567 -0.0408
-0.0352 -0.0090 0.0162 0.0387 0.0723 0.0854
0.1256 0.1602 0.1565 0.2089 0.2472 0.2519
0.2893 0.3276 0.3800 0.4118 0.4202 0.4913
0.5352 0.5596 0.6250 0.6465 0.6924 0.7550
0.7812 0.8410 0.9018 0.9280 0.9804 1.0477
1.0935 1.1618 1.2048 1.2404 1.3199 1.3573
1.4106 1.4873 1.5191 1.5630 1.5939 1.6322
1.6846 1.7117 1.7398 1.7613 1.7856 1.7893
1.8127 1.8408 1.8520 1.8791 1.8847 1.9156
1.9436 1.9446 1.9586 1.9408 1.9530 1.9951
1.9885 1.9997 1.9998 1.9867 2.0026 2.0054
2.0147 2.0156 1.9979 1.9867 1.9904 1.9726
1.9605 1.9567 1.9362 1.9399 1.9090 1.8754
1.8716 1.8529 1.8146 1.7800 1.7575 1.7351
1.7052 1.6500 1.6229 1.6004 1.5359 1.4994
1.4704 1.4237 1.4022 1.3629 1.3143 1.2900
1.2376 1.1908 1.1600 1.1104 1.0880 1.0590
1.0141 0.9832 0.9421 0.9140 0.8794 0.8392
0.8168 0.7700 0.7317 0.7130 0.6727 0.6325
0.6063 0.5774 0.5540 0.5250 0.4932 0.4801
0.4539 0.4081 0.3913 0.3754 0.3323 0.3155
0.2725 0.2295 0.2005 0.1388 0.1378 0.1182
0.0630 0.0462 0.0032 -0.0268 -0.0558 -0.1109
-0.1287 -0.1502 -0.1942 -0.2175 -0.2456 -0.2905
-0.3260 -0.3588 -0.3849 -0.4130 -0.4523 -0.4831
-0.5103 -0.5374 -0.5579 -0.5879 -0.6272 -0.6318
-0.6374 -0.6758 -0.6964 -0.7113 -0.7412 -0.7618
-0.7721 -0.7712 -0.7936 -0.8104 -0.8067 -0.8235
-0.8469 -0.8525 -0.8497 -0.8675 -0.8675 -0.8712
-0.8787 -0.8843 -0.9086 -0.9030 -0.9161 -0.9358
-0.9002 -0.9133 -0.9301 -0.8853 -0.9124 -0.8918
-0.8544 -0.8768 -0.8291 -0.8291 -0.8217 -0.7777
-0.7646 -0.7356 -0.7197 -0.6963 -0.6430 -0.6206
-0.6187 -0.5533 -0.5102 -0.5140 -0.4700 -0.4317
-0.4008 -0.3503 -0.3297 -0.2746 -0.2259 -0.2166
-0.1567 -0.1137 -0.0707 -0.0239 -0.0080 0.0406
0.0668 0.0892 0.1219 0.1528 0.1790 0.1855
0.2005 0.2070 0.2426 0.2604 0.2529 0.2716
0.2781 0.2922 0.2912 0.2809 0.2968 0.2856
0.2678 0.2809 0.2557 0.2351 0.2417 0.2108
0.2033 0.1912 0.1491 0.1435 0.1369 0.1257
0.1126 0.0817 0.0574 0.0331 0.0088 -0.0034
-0.0277 -0.0660 -0.0744 -0.0819 -0.1081 -0.1165
-0.1315 -0.1661 -0.1801 -0.1876 -0.2203 -0.2521
-0.2643 -0.2708 -0.2933 -0.3166 -0.3185 -0.3269
-0.3606 -0.3634 -0.3784 -0.3999 -0.3840 -0.4148
-0.4279 -0.4242 -0.4681 -0.4822 -0.4896 -0.5233
-0.5532 -0.5860 -0.5991 -0.5981 -0.6355 -0.6552
-0.6692 -0.7038 -0.7075 -0.7365 -0.7599 -0.7571
-0.8067 -0.8394 -0.8544 -0.9105 -0.9217 -0.9367
-0.9918 -0.9787 -1.0049 -1.0592 -1.0554 -1.0751
-1.0984 -1.1218 -1.1405 -1.1274 -1.1293 -1.1602
-1.1396 -1.1171 -1.1256 -1.0919 -1.0938 -1.0863
-1.0507 -1.0638 -1.0339 -0.9937 -0.9937 -0.9563
-0.9189 -0.8880 -0.8385 -0.8216 -0.7898 -0.7440
-0.7328 -0.6907 -0.6402 -0.6243 -0.5897 -0.5701
-0.5429 -0.4831 -0.4709 -0.4457 -0.3830 -0.3465
-0.3250 -0.2979 -0.2708 -0.2399 -0.2035 -0.1661
-0.1408 -0.1156 -0.0781 -0.0576 -0.0202 0.0247
0.0462 0.0705 0.1154 0.1594 0.1809 0.2183
0.2398 0.2557 0.3109 0.3446 0.3876 0.4371
0.4587 0.4979 0.5325 0.5662 0.6270 0.6607
0.6794 0.7345 0.7673 0.7878 0.8355 0.8570
0.8879 0.9272 0.9291 0.9711 0.9983 0.9814
0.9880 0.9824 0.9889 0.9973 0.9739 0.9730
0.9693 0.9496 0.9412 0.9216 0.9206 0.9085
0.8832 0.9019 0.8888 0.8729 0.8748 0.8430
0.8393 0.8383 0.7925 0.7916 0.8037 0.7710
0.7542 0.7561 0.7420 0.7317 0.7345 0.7140
0.7121 0.6990 0.6663 0.6953 0.6869 0.6410
0.6485 0.6373 0.6242 0.6448 0.6148 0.5943
0.6046 0.5765 0.5672 0.5737 0.5503 0.5372
0.5092 0.4839 0.4830 0.4418 0.4334 0.4437
0.4110 0.3951 0.3680 0.3268 0.3380 0.3249
0.2838 0.2988 0.2847 0.2576 0.2268 0.1837
0.1931 0.1641 0.1332 0.1304 0.0949 0.0818
0.0612 0.0350 0.0266 -0.0033 -0.0183 -0.0211
-0.0473 -0.0884 -0.1052 -0.1090 -0.1333 -0.1426
-0.1623 -0.1800 -0.1875 -0.2231 -0.2296 -0.2483
-0.2605 -0.2605 -0.2979 -0.3128 -0.3287 -0.3465
-0.3755 -0.4073 -0.4260 -0.4410 -0.4634 -0.4933
-0.4924 -0.5261 -0.5579 -0.5728 -0.6046 -0.6317
-0.6701 -0.7084 -0.7159 -0.7383 -0.7907 -0.7851
-0.8113 -0.8524 -0.8571 -0.8889 -0.9011 -0.9282
-0.9441 -0.9516 -0.9806 -0.9871 -0.9908 -1.0058
-1.0301 -1.0264 -1.0385 -1.0498 -1.0376 -1.0554
-1.0657 -1.0778 -1.0816 -1.0750 -1.0825 -1.0853
-1.0918 -1.0825 -1.0666 -1.0731 -1.0610 -1.0413
-1.0488 -1.0544 -1.0385 -1.0264 -1.0254 -1.0058
-1.0002 -0.9637 -0.9469 -0.9693 -0.9291 -0.8992
-0.8842 -0.8636 -0.8356 -0.8131 -0.7963 -0.7832
-0.7692 -0.7374 -0.7262 -0.6925 -0.6635 -0.6401
-0.6158 -0.6130 -0.5803 -0.5335 -0.5298 -0.5176
-0.4709 -0.4624 -0.4213 -0.3960 -0.4045 -0.3689
-0.3633 -0.3409 -0.3203 -0.3147 -0.2763 -0.2717
-0.2679 -0.2305 -0.2090 -0.2006 -0.1800 -0.1557
-0.1164 -0.0902 -0.0753 -0.0407 -0.0042 0.0482
0.0790 0.1174 0.1538 0.1548 0.1828 0.2296
0.2689 0.2960 0.3278 0.3549 0.3802 0.4157
0.4279 0.4419 0.4681 0.4858 0.5073 0.5410
0.5522 0.5588 0.5766 0.5934 0.6102 0.6121
0.6299 0.6401 0.6233 0.6317 0.6411 0.6205
0.6373 0.6560 0.6401 0.6626 0.6673 0.6420
0.6589 0.6682 0.6523 0.6495 0.6392 0.6280
0.6420 0.6280 0.6177 0.6327 0.6055 0.5971
0.6009 0.5784 0.5709 0.5485 0.5345 0.5373
0.5176 0.5027 0.5074 0.5148 0.5298 0.5279
0.5205 0.5345 0.5279 0.5335 0.5401 0.5504
0.5784 0.5775 0.5925 0.6205 0.6327 0.6392
0.6654 0.6785 0.6850 0.7056 0.7084 0.7533
0.7692 0.7832 0.8169 0.8122 0.8319 0.8375
0.8459 0.8412 0.8496 0.8777 0.8927 0.8983
0.8973 0.9319 0.9385 0.9478 0.9656 0.9647
0.9712 0.9834 0.9946 0.9824 0.9852 0.9909
0.9852 0.9834 0.9796 0.9778 0.9740 0.9619
0.9404 0.9235 0.9273 0.9226 0.9086 0.9030
0.8861 0.8730 0.8684 0.8534 0.8412 0.8384
0.8253 0.8160 0.8169 0.8057 0.7879 0.7608
0.7505 0.7589 0.7393 0.7281 0.7337 0.7215
0.7150 0.7197 0.7112 0.7178 0.7000 0.6738
0.6851 0.6692 0.6570 0.6383 0.6140 0.6252
0.5990 0.5523 0.5467 0.5270 0.4859 0.4559
0.4045 0.3680 0.3437 0.2942 0.2605 0.2119
0.1539 0.1296 0.0791 0.0276 0.0015 -0.0481
-0.0836 -0.0958 -0.1594 -0.2052 -0.2118 -0.2538
-0.2744 -0.3072 -0.3633 -0.3857 -0.4315 -0.4802
-0.5092 -0.5634 -0.6017 -0.6373 -0.7009 -0.7299
-0.7794 -0.8486 -0.8664 -0.9038 -0.9365 -0.9608
-1.0095 -1.0422 -1.0824 -1.1254 -1.1526 -1.1787
-1.2292 -1.2601 -1.2657 -1.2938 -1.3041 -1.3321
-1.3770 -1.3779 -1.3966 -1.4088 -1.4209 -1.4397
-1.4238 -1.4462 -1.4602 -1.4443 -1.4443 -1.4593
-1.4471 -1.4359 -1.4565 -1.4425 -1.4303 -1.3966
-1.3835 -1.3779 -1.3302 -1.3237 -1.3012 -1.2825
-1.2779 -1.2302 -1.1965 -1.1638 -1.0927 -1.0441
-1.0141 -0.9496 -0.9159 -0.8570 -0.7803 -0.7383
-0.6485 -0.5970 -0.5559 -0.4867 -0.4483 -0.3735
-0.2940 -0.2426 -0.1828 -0.1257 -0.0668 -0.0172
0.0314 0.0884 0.1268 0.1773 0.2269 0.2774
0.3007 0.3129 0.3681 0.3718 0.4055 0.4457
0.4438 0.4812 0.5065 0.5093 0.5158 0.5523
0.5635 0.5673 0.5710 0.5701 0.6019 0.5944
0.5972 0.6122 0.6131 0.6290 0.6234 0.6393
0.6505 0.6262 0.6243 0.6383 0.6309 0.6290
0.6346 0.6215 0.6253 0.6168 0.6066 0.6224
0.6084 0.6037 0.6187 0.6168 0.6159 0.6178
0.6150 0.6066 0.6075 0.5981 0.5935 0.5925
0.5822 0.5832 0.5504 0.5392 0.5458 0.5074
0.4897 0.4831 0.4513 0.4289 0.4046 0.3690
0.3550 0.3223 0.2905 0.2587 0.2166 0.1998
0.1633 0.1324 0.1324 0.1109 0.0875 0.0866
0.0511 0.0389 0.0286 -0.0312 -0.0181 -0.0238
-0.0686 -0.0462 -0.0527 -0.0808 -0.0930 -0.1210
-0.1304 -0.1425 -0.1771 -0.1762 -0.1855 -0.2173
-0.2220 -0.2398 -0.2547 -0.2650 -0.2725 -0.2772
-0.2996 -0.3090 -0.3221 -0.3314 -0.3239 -0.3193
-0.3015 -0.2903 -0.2903 -0.2762 -0.2856 -0.2613
-0.2407 -0.2295 -0.1752 -0.1780 -0.1612 -0.1257
-0.1294 -0.1060 -0.0742 -0.0546 -0.0322 -0.0041
0.0240 0.0576 0.0623 0.0679 0.1016 0.1175
0.1558 0.1792 0.1773 0.2166 0.2428 0.2568
0.2924 0.3064 0.3335 0.3559 0.3494 0.3821
0.3887 0.3896 0.4280 0.4298 0.4448 0.4766
0.4850 0.4887 0.5000 0.5112 0.5149 0.5280
0.5449 0.5495 0.5467 0.5729 0.5823 0.5851
0.6085 0.6141 0.6281 0.6393 0.6384 0.6487
0.6543 0.6272 0.6281 0.6459 0.6328 0.6262
0.6159 0.6075 0.6019 0.5813 0.5870 0.5954
0.5748 0.5617 0.5449 0.5290 0.5187 0.4972
0.4710 0.4448 0.4364 0.4289 0.4289 0.4252
0.4046 0.4074 0.4027 0.3943 0.4102 0.3878
0.3691 0.3719 0.3588 0.3672 0.3485 0.3307
0.3438 0.3045 0.2812 0.2961 0.2821 0.2653
0.2587 0.2409 0.2437 0.2437 0.2101 0.2045
0.1904 0.1830 0.1886 0.1633 0.1736 0.1736
0.1512 0.1484 0.1381 0.1212 0.1222 0.1278
0.1278 0.1203 0.0866 0.0951 0.1100 0.0810
0.0820 0.0913 0.0801 0.0736 0.0567 0.0390
0.0455 0.0361 0.0165 0.0006 -0.0144 -0.0181
-0.0359 -0.0770 -0.0845 -0.0854 -0.1294 -0.1369
-0.1546 -0.1864 -0.1902 -0.2351 -0.2715 -0.2799
-0.3220 -0.3407 -0.3454 -0.3809 -0.4034 -0.4212
-0.4240 -0.4277 -0.4558 -0.4660 -0.4586 -0.4576
-0.4361 -0.4361 -0.4473 -0.4034 -0.3884 -0.3753
-0.3360 -0.3155 -0.2865 -0.2659 -0.2547 -0.2220
-0.1930 -0.1874 -0.1574 -0.1322 -0.1181 -0.0873
-0.0807 -0.0630 -0.0349 -0.0218 0.0184 0.0474
0.0446 0.0773 0.0801 0.0558 0.0904 0.0904
0.0885 0.1278 0.1297 0.1278 0.1474 0.1418
0.1316 0.1372 0.1390 0.1690 0.1764 0.1755
0.1867 0.1643 0.1708 0.1690 0.1568 0.1708
0.1643 0.1605 0.1755 0.1634 0.1456 0.1652
0.1596 0.1662 0.1783 0.1549 0.1559 0.1353
0.1259 0.1297 0.1157 0.1325 0.1381 0.1129
0.1194 0.1269 0.1082 0.1316 0.1316 0.1185
0.1400 0.1241 0.1091 0.1269 0.1147 0.0885
0.0951 0.0764 0.0764 0.0726 0.0380 0.0362
0.0006 -0.0190 -0.0330 -0.0611 -0.0714 -0.0976
-0.1247 -0.1537 -0.1761 -0.1976 -0.2060 -0.2247
-0.2500 -0.2659 -0.3136 -0.3248 -0.3444 -0.3949
-0.4136 -0.4398 -0.4726 -0.4856 -0.4997 -0.5249
-0.5343 -0.5464 -0.5717 -0.5773 -0.5895 -0.6100
-0.6082 -0.6325 -0.6418 -0.6437 -0.6746 -0.6474
-0.6549 -0.6876 -0.6830 -0.7129 -0.7054 -0.7101
-0.7335 -0.6923 -0.6858 -0.6867 -0.6661 -0.6699
-0.6633 -0.6699 -0.6961 -0.7054 -0.7166 -0.7335
-0.7325 -0.7316 -0.7419 -0.7204 -0.7176 -0.7279
-0.6970 -0.7035 -0.6989 -0.6895 -0.7120 -0.6942
-0.6858 -0.6783 -0.6456 -0.6409 -0.6222 -0.5866
-0.5866 -0.5530 -0.5062 -0.4838 -0.4267 -0.3977
-0.3987 -0.3556 -0.3341 -0.3173 -0.2743 -0.2472
-0.2107 -0.1864 -0.1714 -0.1434 -0.1181 -0.1088
-0.0844 -0.0508 -0.0508 -0.0180 0.0053 0.0147
0.0615 0.0671 0.0830 0.1017 0.1101 0.1419
0.1391 0.1400 0.1503 0.1634 0.1643 0.1643
0.1877 0.1952 0.2176 0.2120 0.2064 0.2214
0.1943 0.1914 0.1952 0.1877 0.1849 0.1634
0.1466 0.1316 0.1251 0.1297 0.1213 0.0998
0.0923 0.0699 0.0605 0.0624 0.0306 0.0212
0.0082 -0.0115 -0.0246 -0.0639 -0.0863 -0.0919
-0.1153 -0.1368 -0.1274 -0.1452 -0.1798 -0.2004
-0.2191 -0.2153 -0.2350 -0.2556 -0.2490 -0.2434
-0.2499 -0.2574 -0.2574 -0.2715 -0.2621 -0.2658
-0.2546 -0.2471 -0.2752 -0.2397 -0.2275 -0.2200
-0.1882 -0.1966 -0.1770 -0.1508 -0.1415 -0.1330
-0.1153 -0.0863 -0.0442 -0.0236 -0.0236 0.0157
0.0222 0.0138 0.0390 0.0624 0.0989 0.1213
0.1325 0.1625 0.1765 0.1840 0.1877 0.1896
0.2102 0.2242 0.2364 0.2438 0.2504 0.2438
0.2457 0.2579 0.2551 0.2728 0.2700 0.2915
0.3205 0.2990 0.3056 0.3121 0.2990 0.3084
0.3037 0.2831 0.2887 0.2738 0.2616 0.2831
0.2569 0.2579 0.2663 0.2429 0.2410 0.2177
0.2214 0.2373 0.2476 0.2429 0.2326 0.2504
0.2429 0.2336 0.2261 0.2317 0.2607 0.2616
0.2663 0.2887 0.2878 0.2915 0.2887 0.2822
0.3000 0.2962 0.2934 0.2953 0.2915 0.3028
0.2756 0.2532 0.2719 0.2672 0.2551 0.2654
0.2569 0.2280 0.2261 0.2242 0.2139 0.1999
0.1653 0.1765 0.1634 0.1120 0.1148 0.0933
0.0587 0.0456 0.0334 0.0269 0.0232 0.0045
-0.0189 -0.0358 -0.0722 -0.0928 -0.1218 -0.1255
-0.1209 -0.1527 -0.1414 -0.1592 -0.1704 -0.1695
-0.2125 -0.2237 -0.2378 -0.2537 -0.2565 -0.2583
-0.2480 -0.2359 -0.2349 -0.2368 -0.2256 -0.2406
-0.2387 -0.2209 -0.2284 -0.1985 -0.1854 -0.1873
-0.1807 -0.1901 -0.1844 -0.1844 -0.1704 -0.1498
-0.1274 -0.1087 -0.1012 -0.1021 -0.1143 -0.0919
-0.0666 -0.0573 -0.0339 0.0017 0.0260 0.0522
0.0709 0.0821 0.1064 0.1158 0.1345 0.1476
0.1625 0.1850 0.1793 0.1719 0.1709 0.1943
0.1971 0.1850 0.2027 0.2140 0.2009 0.1906
0.2074 0.1952 0.1803 0.1962 0.1868 0.1831
0.1737 0.1550 0.1747 0.1728 0.1681 0.1822
0.1784 0.1812 0.1794 0.1934 0.2214 0.2439
0.2551 0.2757 0.3103 0.3187 0.3346 0.3524
0.3552 0.3832 0.4001 0.4066 0.4375 0.4506
0.4786 0.5029 0.5048 0.5291 0.5301 0.5534
0.6011 0.6058 0.6011 0.6124 0.6236 0.6423
0.6526 0.6507 0.6731 0.6694 0.6638 0.6834
0.6778 0.6853 0.7040 0.6975 0.6965 0.7190
0.6993 0.6853 0.7021 0.6872 0.6713 0.6675
0.6750 0.6498 0.6264 0.6329 0.6077 0.6049
0.5918 0.5684 0.5740 0.5581 0.5441 0.5188
0.4973 0.4955 0.4711 0.4459 0.4450 0.4375
0.3851 0.3533 0.3440 0.3168 0.3038 0.2822
0.2598 0.2439 0.2046 0.1710 0.1794 0.1653
0.1326 0.1364 0.1148 0.0802 0.0746 0.0400
0.0082 0.0008 -0.0366 -0.0404 -0.0460 -0.1002
-0.0946 -0.0909 -0.1246 -0.1152 -0.1283 -0.1461
-0.1358 -0.1592 -0.1779 -0.1807 -0.1900 -0.1788
-0.1704 -0.1732 -0.1620 -0.1666 -0.1573 -0.1433
-0.1666 -0.1507 -0.1451 -0.1554 -0.1563 -0.1797
-0.1807 -0.1919 -0.2078 -0.2059 -0.2003 -0.2115
-0.2096 -0.2153 -0.2517 -0.2545 -0.2826 -0.3069
-0.3050 -0.3387 -0.3537 -0.3555 -0.3733 -0.3995
-0.4294 -0.4397 -0.4388 -0.4808 -0.4949 -0.4958
-0.5351 -0.5538 -0.5716 -0.5650 -0.5631 -0.5744
-0.5772 -0.5884 -0.6024 -0.6249 -0.6183 -0.6323
-0.6454 -0.6342 -0.6539 -0.6772 -0.6875 -0.6894
-0.7006 -0.7072 -0.7025 -0.6941 -0.7202 -0.7483
-0.7492 -0.7707 -0.7689 -0.7754 -0.7923 -0.7698
-0.7670 -0.7894 -0.7829 -0.7932 -0.8053 -0.7848
-0.8007 -0.7932 -0.7745 -0.7829 -0.7707 -0.7586
-0.7567 -0.7520 -0.7427 -0.7399 -0.7230 -0.7221
-0.7315 -0.7100 -0.7109 -0.6959 -0.6613 -0.6585
-0.6454 -0.6445 -0.6492 -0.6248 -0.6314 -0.6482
-0.6417 -0.6407 -0.6426 -0.6482 -0.6436 -0.6239
-0.6417 -0.6548 -0.6417 -0.6510 -0.6454 -0.6445
-0.6669 -0.6613 -0.6510 -0.6613 -0.6594 -0.6538
-0.6744 -0.6594 -0.6379 -0.6473 -0.6398 -0.6314
-0.6146 -0.5996 -0.5930 -0.5734 -0.5659 -0.5669
-0.5425 -0.5397 -0.5182 -0.4724 -0.4827 -0.4556
-0.4256 -0.4341 -0.3957 -0.3705 -0.3602 -0.3405
-0.3387 -0.3125 -0.2816 -0.2788 -0.2760 -0.2601
-0.2536 -0.2302 -0.2134 -0.2311 -0.2049 -0.1844
-0.1900 -0.1675 -0.1657 -0.1591 -0.1460 -0.1572
-0.1451 -0.1282 -0.1311 -0.1264 -0.1198 -0.1180
-0.0983 -0.0852 -0.0740 -0.0431 -0.0301 -0.0123
0.0064 -0.0020 0.0242 0.0429 0.0354 0.0653
0.0700 0.0831 0.1027 0.0999 0.1439 0.1542
0.1392 0.1691 0.1832 0.1794 0.1991 0.2066
0.2009 0.2131 0.1981 0.1897 0.2000 0.1682
0.1635 0.1738 0.1364 0.1317 0.1168 0.0953
0.1102 0.0710 0.0485 0.0513 0.0018 -0.0141
-0.0413 -0.0646 -0.0600 -0.0936 -0.1161 -0.1357
-0.1544 -0.1759 -0.1984 -0.2246 -0.2405 -0.2451
-0.2723 -0.2741 -0.2900 -0.3078 -0.3097 -0.3312
-0.3386 -0.3386 -0.3620 -0.3545 -0.3284 -0.3667
-0.3751 -0.3686 -0.3882 -0.3770 -0.3948 -0.3948
-0.3695 -0.3789 -0.3648 -0.3611 -0.3648 -0.3312
-0.3405 -0.3508 -0.3227 -0.3153 -0.3218 -0.3022
-0.2769 -0.2676 -0.2620 -0.2666 -0.2395 -0.2395
-0.2563 -0.2227 -0.2320 -0.2227 -0.1984 -0.2086
-0.1675 -0.1488 -0.1712 -0.1488 -0.1422 -0.1432
-0.1076 -0.1151 -0.1076 -0.0674 -0.0805 -0.0628
-0.0347 -0.0469 -0.0272 -0.0207 -0.0066 0.0252
0.0139 0.0205 0.0504 0.0504 0.0682 0.0869
0.0962 0.1149 0.1308 0.1439 0.1608 0.1767
0.1785 0.2169 0.2402 0.2552 0.2608 0.2599
0.2898 0.2945 0.3141 0.3291 0.3478 0.3899
0.3899 0.4039 0.4198 0.4254 0.4404 0.4376
0.4619 0.4628 0.4628 0.4722 0.4787 0.5012
0.4899 0.4956 0.5040 0.5087 0.5199 0.5012
0.4834 0.5096 0.4993 0.4694 0.5012 0.4862
0.4638 0.4703 0.4647 0.4862 0.4862 0.4694
0.5002 0.5161 0.5077 0.5414 0.5376 0.5386
0.5676 0.5694 0.6022 0.6143 0.6293 0.6545
0.6480 0.6714 0.7004 0.7069 0.7238 0.7509
0.7771 0.8032 0.8107 0.8322 0.8640 0.8687
0.8912 0.9286 0.9463 0.9669 0.9940 1.0230
1.0436 1.0455 1.0754 1.1203 1.1278 1.1483
1.1867 1.1970 1.2166 1.2390 1.2493 1.2718
1.2998 1.3036 1.3195 1.3457 1.3457 1.3746
1.3905 1.3999 1.4214 1.4261 1.4364 1.4158
1.4223 1.4308 1.4130 1.4298 1.4411 1.4195
1.4027 1.4008 1.3803 1.3700 1.3672 1.3541
1.3597 1.3429 1.3064 1.3157 1.3148 1.2961
1.2989 1.2980 1.3055 1.2905 1.2877 1.3008
1.2933 1.2746 1.2746 1.2680 1.2540 1.2783
1.2531 1.2297 1.2372 1.2260 1.2204 1.2110
1.2119 1.2017 1.1783 1.1577 1.1502 1.1390
1.1184 1.0997 1.0567 1.0445 1.0361 0.9753
0.9389 0.9108 0.8715 0.8528 0.7958 0.7752
0.7518 0.6714 0.6564 0.6265 0.5779 0.5414
0.4975 0.4591 0.4170 0.3834 0.3619 0.3497
0.2983 0.2468 0.2207 0.1973 0.1645 0.1131
0.0869 0.0598 0.0168 -0.0038 -0.0206 -0.0562
-0.0926 -0.1310 -0.1721 -0.2039 -0.2338 -0.2582
-0.2769 -0.3002 -0.3414 -0.3760 -0.4003 -0.4246
-0.4358 -0.4723 -0.4966 -0.5041 -0.5350 -0.5527
-0.5649 -0.5827 -0.5939 -0.6098 -0.6135 -0.5967
-0.6154 -0.6453 -0.6584 -0.6537 -0.6322 -0.6687
-0.6687 -0.6397 -0.6706 -0.6808 -0.6902 -0.6902
-0.6893 -0.7220 -0.7360 -0.7295 -0.7416 -0.7697
-0.7688 -0.7800 -0.7949 -0.8146 -0.8211 -0.8024
-0.8305 -0.8454 -0.8473 -0.8698 -0.8669 -0.8548
-0.8632 -0.8548 -0.8501 -0.8623 -0.8539 -0.8501
-0.8389 -0.8314 -0.8408 -0.7987 -0.7744 -0.7903
-0.7659 -0.7547 -0.7472 -0.7220 -0.7117 -0.6911
-0.6612 -0.6322 -0.6238 -0.6154 -0.5929 -0.5742
-0.5677 -0.5452 -0.5069 -0.5022 -0.4957 -0.4835
-0.4583 -0.4470 -0.4583 -0.4442 -0.4255 -0.4199
-0.4330 -0.4190 -0.4059 -0.4021 -0.3872 -0.3965
-0.3657 -0.3573 -0.3675 -0.3423 -0.3460 -0.3423
-0.3432 -0.3367 -0.3404 -0.3470 -0.3301 -0.3423
-0.3227 -0.3264 -0.3544 -0.3432 -0.3563 -0.3722
-0.3750 -0.3947 -0.4003 -0.4096 -0.4386 -0.4386
-0.4424 -0.4816 -0.4854 -0.4919 -0.5237 -0.5293
-0.5602 -0.5789 -0.5995 -0.6434 -0.6509 -0.6948
-0.7407 -0.7482 -0.7930 -0.8117 -0.8099 -0.8557
-0.8819 -0.9118 -0.9586 -0.9726 -1.0175 -1.0512
-1.0455 -1.0839 -1.1073 -1.1147 -1.1540 -1.1606
-1.1924 -1.2288 -1.2288 -1.2503 -1.2634 -1.2756
-1.2784 -1.2840 -1.3139 -1.3270 -1.3233 -1.3195
-1.3270 -1.3252 -1.3214 -1.3195 -1.3083 -1.3139
-1.3111 -1.2952 -1.2812 -1.2747 -1.2681 -1.2578
-1.2326 -1.2036 -1.1886 -1.1746 -1.1727 -1.1503
-1.1222 -1.0979 -1.0642 -1.0539 -1.0306 -0.9932
-0.9726 -0.9539 -0.9314 -0.8931 -0.8669 -0.8566
-0.8089 -0.7706 -0.7668 -0.7444 -0.6986 -0.6715
-0.6640 -0.6294 -0.5892 -0.5583 -0.5256 -0.4835
-0.4470 -0.4386 -0.4152 -0.3731 -0.3423 -0.2946
-0.2609 -0.2497 -0.1936 -0.1515 -0.1328 -0.0991
-0.0645 -0.0374 0.0131 0.0524 0.0627 0.1066
0.1272 0.1852 0.2198 0.2151 0.2881 0.3142
0.3423 0.3844 0.3984 0.4246 0.4442 0.4947
0.5265 0.5228 0.5471 0.5649 0.5817 0.6126
0.6313 0.6556 0.6677 0.6780 0.6911 0.7042
0.7407 0.7603 0.7865 0.8071 0.8108 0.8529
0.8632 0.8613 0.8894 0.8884 0.9128 0.9399
0.9389 0.9548 0.9520 0.9595 0.9810 0.9810
0.9866 0.9997 0.9969 0.9969 1.0110 1.0016
0.9979 0.9988 0.9866 0.9866 0.9642 0.9352
0.9352 0.9193 0.8931 0.8838 0.8651 0.8529
0.8314 0.8015 0.7865 0.7444 0.7351 0.7351
0.7089 0.7080 0.6687 0.6360 0.6406 0.6238
0.6042 0.5911 0.5724 0.5808 0.5668 0.5265
0.4985 0.4798 0.4845 0.4648 0.4452 0.4414
0.4424 0.4414 0.4078 0.4012 0.3881 0.3573
0.3348 0.3068 0.3040 0.2834 0.2582 0.2441
0.2348 0.2161 0.1871 0.1843 0.1628 0.1562
0.1497 0.1375 0.1310 0.1057 0.1160 0.1216
0.1048 0.1057 0.0926 0.0880 0.0982 0.0945
0.1057 0.0936 0.0814 0.1095 0.1067 0.0964
0.1048 0.0908 0.1057 0.1216 0.0973 0.1095
0.1039 0.0674 0.0777 0.0964 0.0833 0.0739
0.0786 0.0964 0.1123 0.0861 0.0945 0.1123
0.1123 0.1300 0.1179 0.1226 0.1375 0.1170
0.1198 0.1282 0.1198 0.1375 0.1618 0.1581
0.1590 0.1628 0.1525 0.1684 0.1609 0.1553
0.1693 0.1534 0.1590 0.1572 0.1478 0.1609
0.1618 0.1516 0.1693 0.1918 0.1927 0.2086
0.2105 0.2142 0.2301 0.2189 0.2320 0.2339
0.2301 0.2423 0.2152 0.2320 0.2619 0.2479
0.2423 0.2638 0.2722 0.2498 0.2507 0.2666
0.2844 0.2666 0.2591 0.2666 0.2507 0.2432
0.2254 0.2460 0.2759 0.2488 0.2348 0.2442
0.2563 0.2432 0.2311 0.2629 0.2750 0.2778
0.2685 0.2731 0.2862 0.2544 0.2722 0.2806
0.2750 0.3059 0.2890 0.2900 0.3115 0.2956
0.2965 0.3096 0.3152 0.3283 0.3115 0.3068
0.3218 0.3031 0.3021 0.3134 0.2984 0.2853
0.2769 0.2629 0.2516 0.2273 0.1974 0.1862
0.1955 0.1675 0.1366 0.1245 0.0992 0.0786
0.0366 0.0281 0.0029 -0.0411 -0.0626 -0.1056
-0.1234 -0.1336 -0.1533 -0.1907 -0.2075 -0.2141
-0.2459 -0.2608 -0.2833 -0.3113 -0.3515 -0.3759
-0.3506 -0.3796 -0.4292 -0.4282 -0.4432 -0.4759
-0.5012 -0.5245 -0.5264 -0.5498 -0.5825 -0.5825
-0.6050 -0.6302 -0.6564 -0.6695 -0.6527 -0.6667
-0.7032 -0.6994 -0.6994 -0.7434 -0.7611 -0.7855
-0.7986 -0.7911 -0.8154 -0.8163 -0.8163 -0.8369
-0.8406 -0.8743 -0.8995 -0.8986 -0.9313 -0.9257
-0.9267 -0.9678 -0.9781 -1.0024 -1.0183 -1.0183
-1.0426 -1.0679 -1.0632 -1.0772 -1.1062 -1.1034
-1.1315 -1.1436 -1.1399 -1.1670 -1.1670 -1.1679
-1.1941 -1.1979 -1.1960 -1.1941 -1.1736 -1.1866
-1.1923 -1.1661 -1.1773 -1.1670 -1.1455 -1.1483
-1.1277 -1.1137 -1.1146 -1.0838 -1.0679 -1.0595
-1.0155 -0.9828 -0.9257 -0.9070 -0.8986 -0.8425
-0.8219 -0.7957 -0.7761 -0.7284 -0.6685 -0.6339
-0.5881 -0.5535 -0.5301 -0.5021 -0.4544 -0.4226
-0.3777 -0.3394 -0.3272 -0.2907 -0.2515 -0.2225
-0.1869 -0.1355 -0.1233 -0.1009 -0.0588 -0.0438
-0.0027 0.0188 0.0385 0.0693 0.0777 0.1161
0.1348 0.1357 0.1769 0.1834 0.1731 0.2190
0.2461 0.2526 0.2797 0.2816 0.2994 0.3181
0.2919 0.3106 0.3218 0.3106 0.3424 0.3274
0.3171 0.3228 0.2956 0.3181 0.3387 0.3190
0.3256 0.3228 0.3022 0.3041 0.3003 0.2910
0.3059 0.3162 0.3106 0.3274 0.3200 0.3209
0.3405 0.3340 0.3723 0.3966 0.3761 0.3985
0.4153 0.4125 0.4238 0.4191 0.4471 0.4761
0.4817 0.5154 0.5304 0.5369 0.5631 0.5762
0.6117 0.6417 0.6267 0.6632 0.6968 0.7071
0.7408 0.7483 0.7689 0.7922 0.7876 0.8184
0.8455 0.8465 0.8540 0.8502 0.8680 0.8914
0.9026 0.8951 0.8867 0.8988 0.8783 0.8745
0.8848 0.8876 0.8792 0.8446 0.8465 0.8203
0.7950 0.7988 0.7754 0.7735 0.7670 0.7333
0.7099 0.7128 0.6875 0.6585 0.6389 0.6136
0.6099 0.5669 0.5444 0.5416 0.4930 0.4621
0.4481 0.4303 0.4247 0.3901 0.3527 0.3443
0.3003 0.2798 0.2760 0.2470 0.2386 0.2199
0.2059 0.1909 0.1442 0.1236 0.1348 0.1376
0.1301 0.1161 0.0983 0.0909 0.0937 0.0768
0.0694 0.0694 0.0628 0.0955 0.0824 0.0366
0.0647 0.0656 0.0320 0.0619 0.0572 0.0507
0.0684 0.0450 0.0656 0.0637 0.0684 0.0927
0.0637 0.0609 0.0796 0.0834 0.0740 0.0712
0.0656 0.0638 0.0750 0.0638 0.0638 0.0778
0.0703 0.0600 0.0479 0.0366 0.0422 0.0235
0.0292 0.0226 -0.0036 0.0095 -0.0223 -0.0232
-0.0167 -0.0475 -0.0475 -0.0588 -0.0709 -0.0765
-0.1083 -0.1261 -0.1036 -0.1317 -0.1513 -0.1214
-0.1504 -0.1756 -0.1719 -0.1841 -0.1887 -0.2037
-0.2411 -0.2402 -0.2261 -0.2308 -0.2215 -0.2364
-0.2374 -0.2252 -0.2486 -0.2477 -0.2579 -0.2645
-0.2448 -0.2542 -0.2392 -0.2355 -0.2533 -0.2280
-0.2159 -0.2402 -0.2308 -0.2112 -0.2102 -0.1897
-0.1756 -0.1551 -0.1317 -0.1597 -0.1495 -0.1036
-0.0971 -0.0821 -0.0859 -0.0849 -0.0522 -0.0550
-0.0522 -0.0279 -0.0232 -0.0026 0.0002 -0.0251
0.0086 0.0264 0.0105 0.0301 0.0310 0.0376
0.0497 0.0563 0.0554 0.0628 0.0713 0.0619
0.0890 0.0797 0.0703 0.0815 0.0713 0.0834
0.0862 0.0974 0.1171 0.1031 0.0900 0.1105
0.1190 0.1395 0.1433 0.1236 0.1582 0.1592
0.1545 0.1741 0.1685 0.1676 0.1769 0.1863
0.2041 0.1919 0.1872 0.2078 0.1928 0.2069
0.2256 0.2209 0.2340 0.2471 0.2312 0.2349
0.2574 0.2461 0.2546 0.2555 0.2639 0.2845
0.2677 0.2658 0.2808 0.2733 0.2695 0.2854
0.2826 0.2845 0.2705 0.2349 0.2751 0.2770
0.2349 0.2639 0.2564 0.2312 0.2162 0.1882
0.1938 0.1769 0.1564 0.1695 0.1442 0.1218
0.1134 0.0872 0.0816 0.0526 0.0283 0.0226
0.0067 -0.0063 -0.0157 -0.0353 -0.0531 -0.0372
-0.0746 -0.0830 -0.0699 -0.0989 -0.0886 -0.1232
-0.1373 -0.1083 -0.1382 -0.1307 -0.1064 -0.1382
-0.1401 -0.1438 -0.1644 -0.1522 -0.1681 -0.1737
-0.1513 -0.1756 -0.1812 -0.1747 -0.2139 -0.2027
-0.1878 -0.2177 -0.2111 -0.2224 -0.2289 -0.2261
-0.2411 -0.2280 -0.2270 -0.2392 -0.2336 -0.2224
-0.2252 -0.2355 -0.2326 -0.2355 -0.2345 -0.2448
-0.2476 -0.2214 -0.2336 -0.2336 -0.2121 -0.2261
-0.2158 -0.2027 -0.2083 -0.1952 -0.1962 -0.2018
-0.1934 -0.2036 -0.2008 -0.1878 -0.1962 -0.1719
-0.1560 -0.1719 -0.1644 -0.1578 -0.1466 -0.1419
-0.1316 -0.1176 -0.1129 -0.1026 -0.1008 -0.0765
-0.0662 -0.0596 -0.0381 -0.0297 -0.0091 -0.0138
-0.0185 0.0199 0.0320 0.0376 0.0423 0.0489
0.0769 0.0872 0.0947 0.1050 0.1153 0.1330
0.1461 0.1452 0.1648 0.1704 0.1592 0.1760
0.1648 0.1573 0.1620 0.1770 0.1938 0.1760
0.1676 0.1732 0.1564 0.1265 0.1265 0.1237
0.1237 0.1293 0.1078 0.0984 0.1040 0.0872
0.0704 0.0685 0.0545 0.0442 0.0433 0.0339
0.0283 0.0058 -0.0063 -0.0016 -0.0100 -0.0157
-0.0334 -0.0446 -0.0540 -0.0727 -0.0877 -0.0839
-0.0830 -0.0942 -0.0839 -0.1101 -0.1185 -0.1045
-0.1372 -0.1335 -0.1297 -0.1485 -0.1456 -0.1522
-0.1559 -0.1597 -0.1681 -0.1746 -0.1690 -0.1569
-0.1849 -0.2036 -0.1999 -0.2214 -0.2214 -0.2223
-0.2335 -0.2354 -0.2523 -0.2635 -0.2784 -0.2897
-0.2840 -0.3084 -0.3271 -0.3215 -0.3402 -0.3682
-0.3701 -0.3663 -0.4037 -0.4094 -0.4056 -0.4355
-0.4711 -0.4888 -0.4786 -0.4954 -0.5169 -0.5356
-0.5375 -0.5403 -0.5739 -0.5833 -0.5814 -0.5936
-0.6057 -0.6291 -0.6460 -0.6319 -0.6375 -0.6394
-0.6403 -0.6488 -0.6488 -0.6534 -0.6413 -0.6310
-0.6431 -0.6413 -0.6198 -0.6272 -0.6235 -0.6076
-0.5964 -0.5767 -0.5889 -0.5711 -0.5618 -0.5627
-0.5440 -0.5319 -0.5178 -0.5262 -0.5169 -0.5160
-0.5066 -0.4916 -0.4879 -0.4589 -0.4561 -0.4383
-0.4168 -0.4093 -0.3804 -0.3747 -0.3607 -0.3392
-0.3065 -0.2597 -0.2485 -0.2419 -0.2120 -0.1690
-0.1596 -0.1269 -0.0792 -0.0577 -0.0053 0.0134
0.0424 0.0882 0.1125 0.1443 0.1705 0.2079
0.2397 0.2705 0.2911 0.3285 0.3687 0.3781
0.4089 0.4248 0.4295 0.4548 0.4716 0.4847
0.5100 0.5128 0.5324 0.5548 0.5502 0.5754
0.5838 0.5932 0.5960 0.5857 0.6091 0.6222
0.6297 0.6390 0.6334 0.6212 0.6297 0.6325
0.6259 0.6456 0.6437 0.6474 0.6456 0.6343
0.6568 0.6558 0.6465 0.6699 0.6774 0.6568
0.6474 0.6605 0.6727 0.6652 0.6596 0.6727
0.6774 0.6699 0.6764 0.6867 0.6905 0.6989
0.6905 0.6867 0.7007 0.7092 0.7035 0.7045
0.7082 0.7045 0.7176 0.7176 0.7269 0.7241
0.7223 0.7512 0.7316 0.7456 0.7569 0.7447
0.7718 0.7690 0.7597 0.7699 0.7858 0.7830
0.7784 0.7756 0.7784 0.7718 0.7363 0.7372
0.7484 0.7512 0.7325 0.7129 0.7251 0.6923
0.6512 0.6381 0.6362 0.6194 0.6044 0.5810
0.5493 0.5446 0.5025 0.4791 0.4772 0.4483
0.4314 0.4183 0.3949 0.3510 0.3342 0.3108
0.2930 0.2855 0.2444 0.2294 0.2117 0.1827
0.1630 0.1256 0.0938 0.0826 0.0508 0.0274
0.0209 -0.0240 -0.0511 -0.0876 -0.1241 -0.1259
-0.1718 -0.2073 -0.2456 -0.2933 -0.3233 -0.3579
-0.3747 -0.4046 -0.4374 -0.4635 -0.4925 -0.5140
-0.5234 -0.5355 -0.5589 -0.5627 -0.5823 -0.6019
-0.5973 -0.6038 -0.6235 -0.6319 -0.6253 -0.6206
-0.6057 -0.6038 -0.5935 -0.5786 -0.5917 -0.5645
-0.5524 -0.5580 -0.5309 -0.5243 -0.5131 -0.4860
-0.4691 -0.4598 -0.4504 -0.4336 -0.4121 -0.4009
-0.3681 -0.3307 -0.3335 -0.3317 -0.3008 -0.2793
-0.2690 -0.2494 -0.2503 -0.2279 -0.2082 -0.2064
-0.1727 -0.1568 -0.1484 -0.1259 -0.1213 -0.1025
-0.0866 -0.1035 -0.0577 -0.0361 -0.0474 0.0013
0.0125 0.0284 0.0321 0.0228 0.0499 0.0527
0.0658 0.0826 0.0770 0.0714 0.0854 0.0826
0.0995 0.1256 0.0948 0.0995 0.1107 0.0929
0.0938 0.1041 0.0882 0.0929 0.1023 0.0677
0.0920 0.0621 0.0443 0.0761 0.0246 0.0396
0.0574 0.0312 0.0200 0.0237 0.0275 0.0003
-0.0081 -0.0025 0.0134 -0.0100 -0.0258 -0.0006
-0.0165 -0.0090 -0.0099 -0.0146 0.0144 -0.0062
-0.0062 -0.0053 -0.0389 -0.0174 -0.0006 -0.0034
0.0088 0.0097 -0.0043 0.0153 0.0144 0.0069
0.0349 0.0256 0.0368 0.0443 0.0424 0.0639
0.0630 0.0639 0.0808 0.0976 0.1154 0.1388
0.1462 0.1621 0.1958 0.1921 0.1977 0.2126
0.2211 0.2566 0.2510 0.2687 0.2940 0.2818
0.3136 0.3118 0.3174 0.3538 0.3398 0.3426
0.3763 0.3660 0.3454 0.3688 0.4025 0.3931
0.3856 0.3819 0.3529 0.3613 0.3557 0.3576
0.3660 0.3267 0.3333 0.3286 0.3062 0.3136
0.2977 0.2912 0.3043 0.2725 0.2594 0.2688
0.2267 0.2136 0.1996 0.1837 0.1967 0.1696
0.1584 0.1388 0.1088 0.1126 0.0696 0.0434
0.0527 0.0312 0.0153 -0.0099 -0.0249 -0.0464
-0.0763 -0.0978 -0.1156 -0.1362 -0.1820 -0.1792
-0.1960 -0.2344 -0.2418 -0.2905 -0.3148 -0.3307
-0.3774 -0.3859 -0.4018 -0.4560 -0.4728 -0.4962
-0.5336 -0.5261 -0.5598 -0.5841 -0.5645 -0.6019
-0.6440 -0.6440 -0.6505 -0.6617 -0.6767 -0.6832
-0.6664 -0.6758 -0.6926 -0.7122 -0.7207 -0.7094
-0.7235 -0.7066 -0.6982 -0.7169 -0.7094 -0.6982
-0.6907 -0.6963 -0.6945 -0.7029 -0.7076 -0.6945
-0.6917 -0.6636 -0.6449 -0.6384 -0.6159 -0.6206
-0.6178 -0.5813 -0.5645 -0.5504 -0.5317 -0.5233
-0.4878 -0.4644 -0.4653 -0.4429 -0.4326 -0.4214
-0.3868 -0.3840 -0.3606 -0.3410 -0.3475 -0.3204
-0.3185 -0.3082 -0.2802 -0.2736 -0.2755 -0.2661
-0.2474 -0.2381 -0.2128 -0.2222 -0.2241 -0.1932
-0.2072 -0.1932 -0.2091 -0.2231 -0.1792 -0.2072
-0.2110 -0.1810 -0.2025 -0.2025 -0.2063 -0.2269
-0.2119 -0.2306 -0.2559 -0.2287 -0.2540 -0.2615
-0.2587 -0.2961 -0.2839 -0.3092 -0.3297 -0.3138
-0.3363 -0.3391 -0.3447 -0.3625 -0.3568 -0.3681
-0.4083 -0.3877 -0.3653 -0.4260 -0.4354 -0.4158
-0.4307 -0.4494 -0.4822 -0.4765 -0.4635 -0.4999
-0.5149 -0.5289 -0.5673 -0.5607 -0.5654 -0.5747
-0.5560 -0.5803 -0.5953 -0.5991 -0.6243 -0.6262
-0.6159 -0.6187 -0.6047 -0.6140 -0.6458 -0.6206
-0.6140 -0.6178 -0.6140 -0.6318 -0.6243 -0.6047
-0.6103 -0.5962 -0.5775 -0.5897 -0.5635 -0.5607
-0.5626 -0.5401 -0.5429 -0.5270 -0.5298 -0.5270
-0.5018 -0.4990 -0.4952 -0.4691 -0.4532 -0.4457
-0.4223 -0.4204 -0.4008 -0.3727 -0.3662 -0.3559
-0.3437 -0.3391 -0.3045 -0.2848 -0.2820 -0.2474
-0.2240 -0.1876 -0.1810 -0.1866 -0.1445 -0.1212
-0.1202 -0.0828 -0.0473 -0.0585 -0.0230 -0.0043
0.0154 0.0668 0.0612 0.0930 0.1173 0.1304
0.1631 0.1594 0.1893 0.2136 0.1987 0.2267
0.2726 0.2698 0.2595 0.2978 0.3062 0.3156
0.3380 0.3184 0.3614 0.3838 0.3754 0.3979
0.3857 0.4269 0.4540 0.4343 0.4689 0.4933
0.5036 0.5307 0.5541 0.5671 0.5989 0.6120
0.6261 0.6663 0.6728 0.7149 0.7299 0.7392
0.7963 0.8066 0.8299 0.8262 0.8187 0.8711
0.9094 0.9356 0.9496 0.9665 0.9852 1.0001
1.0142 1.0235 1.0497 1.0516 1.0534 1.0918
1.1049 1.1096 1.1208 1.1236 1.1395 1.1479
1.1404 1.1376 1.1685 1.1853 1.1610 1.1703
1.1937 1.2040 1.1909 1.1816 1.1993 1.2106
1.2106 1.1844 1.1806 1.1891 1.1778 1.1619
1.1629 1.1750 1.1479 1.1273 1.1367 1.1386
1.1086 1.0890 1.0918 1.0740 1.0619 1.0366
1.0245 1.0282 0.9964 0.9712 0.9571 0.9300
0.9225 0.9197 0.8898 0.8561 0.8141 0.7766
0.7626 0.7514 0.7261 0.6850 0.6588 0.6298
0.5905 0.5569 0.5307 0.5232 0.4895 0.4437
0.4250 0.3942 0.3605 0.3380 0.3053 0.2904
0.2717 0.2277 0.2081 0.1632 0.1332 0.1323
0.0874 0.0659 0.0584 0.0360 0.0098 -0.0257
-0.0370 -0.0304 -0.0407 -0.0491 -0.0697 -0.0818
-0.0603 -0.0828 -0.0846 -0.0687 -0.0818 -0.0716
-0.0557 -0.0585 -0.0613 -0.0454 -0.0360 0.0126
0.0416 0.0304 0.0678 0.0762 0.0874 0.1099
0.1286 0.1529 0.1482 0.1632 0.1950 0.2221
0.2286 0.2445 0.2726 0.2773 0.2932 0.3231
0.3455 0.3549 0.3614 0.3960 0.4316 0.4335
0.4456 0.4634 0.4858 0.5092 0.5214 0.5532
0.5709 0.5822 0.5859 0.5934 0.6373 0.6560
0.6626 0.6794 0.7000 0.7121 0.7505 0.7813
0.7757 0.7944 0.8047 0.8225 0.8234 0.8328
0.8552 0.8767 0.9029 0.8814 0.8880 0.9095
0.9151 0.8973 0.8992 0.9226 0.9113 0.9272
0.9338 0.9188 0.9104 0.8964 0.8936 0.8973
0.8852 0.8739 0.8721 0.8552 0.8365 0.8103
0.7926 0.7757 0.7608 0.7421 0.7065 0.6785
0.6476 0.6355 0.5953 0.5616 0.5485 0.5074
0.4793 0.4531 0.4166 0.3848 0.3652 0.3194
0.2838 0.2520 0.1997 0.1754 0.1370 0.0865
0.0744 0.0500 0.0080 -0.0220 -0.0734 -0.0986
-0.1361 -0.1772 -0.1856 -0.2305 -0.2548 -0.2745
-0.3250 -0.3549 -0.3811 -0.4119 -0.4260 -0.4624
-0.4849 -0.4867 -0.5354 -0.5578 -0.5821 -0.6083
-0.6092 -0.6448 -0.6504 -0.6495 -0.6878 -0.7074
-0.7177 -0.7505 -0.7533 -0.7430 -0.7813 -0.7963
-0.7757 -0.7972 -0.8365 -0.8515 -0.8505 -0.8440
-0.8571 -0.8664 -0.8702 -0.9104 -0.9169 -0.9141
-0.9244 -0.9094 -0.9141 -0.9122 -0.9197 -0.9281
-0.9150 -0.9197 -0.9141 -0.9001 -0.8804 -0.8477
