Archivo de aceleración parte de la Red Nacional de Acelerógrafos (RENAC) Ecuador
          
Evento: 201604162358
Fecha del evento UTM (aammdd):                  2016    4   16
Hora del registro UTM (hhmmss): 23   59 40.00
Estación:                                      ACUE 
Componente:                                        N
Frecuencia de muestreo (Hz):            1.000000e+02
Unidades: cm/s^2
_____________________________________________
0.4575 0.6698 0.7577 0.7792 0.6941 0.6193
0.5716 0.5108 0.5099 0.4771 0.3687 0.2125
0.0133 -0.1644 -0.2579 -0.3103 -0.3187 -0.2775
-0.1775 -0.0251 0.1152 0.2106 0.2845 0.3518
0.3359 0.2396 0.0844 -0.0980 -0.2299 -0.3131
-0.3234 -0.2785 -0.1878 -0.0587 0.0470 0.1115
0.1162 0.0750 0.0105 -0.0615 -0.1148 -0.1354
-0.0559 0.0535 0.1302 0.2003 0.1882 0.1087
0.0217 -0.0531 -0.0774 -0.0251 0.0890 0.2041
0.2761 0.2602 0.1713 0.0638 -0.0456 -0.1560
-0.2841 -0.4029 -0.4796 -0.5198 -0.4917 -0.3973
-0.3383 -0.3299 -0.3758 -0.5114 -0.6217 -0.6563
-0.6217 -0.5123 -0.3973 -0.2944 -0.2186 -0.1887
-0.1925 -0.2084 -0.1756 -0.0915 0.0198 0.1461
0.2602 0.3303 0.3677 0.3845 0.3855 0.3724
0.3294 0.2480 0.1573 0.1115 0.0591 0.0114
-0.0017 -0.0101 0.0675 0.1928 0.2994 0.3967
0.4079 0.3462 0.2358 0.0694 -0.0569 -0.1485
-0.2177 -0.2177 -0.2093 -0.2364 -0.2776 -0.3337
-0.3907 -0.3776 -0.2888 -0.1466 0.0404 0.2218
0.3555 0.4322 0.4659 0.4696 0.4724 0.5052
0.5706 0.6520 0.7193 0.7259 0.6080 0.3948
0.1404 -0.1036 -0.2617 -0.3617 -0.4207 -0.4010
-0.3412 -0.2196 -0.0316 0.1395 0.2564 0.2798
0.2125 0.0750 -0.1261 -0.3094 -0.4066 -0.4225
-0.3945 -0.3421 -0.2710 -0.1887 -0.0681 0.0750
0.2209 0.3265 0.2873 0.1451 -0.0335 -0.1644
-0.1635 -0.1055 -0.0429 -0.0457 -0.1495 -0.2673
-0.3075 -0.2131 -0.0054 0.2508 0.4434 0.5276
0.5024 0.3602 0.1507 -0.0775 -0.2991 -0.5497
-0.7901 -0.9388 -1.0257 -1.0594 -1.0089 -0.8733
-0.6928 -0.5366 -0.4076 -0.2907 -0.1177 0.1414
0.4453 0.7614 0.9634 1.0223 0.9157 0.6641
0.4126 0.2424 0.2321 0.3331 0.4388 0.4715
0.3798 0.2031 0.0058 -0.1354 -0.1616 -0.0662
0.0806 0.1778 0.2040 0.1863 0.1582 0.1629
0.1358 0.0301 -0.1242 -0.3393 -0.5385 -0.6563
-0.6863 -0.5974 -0.4824 -0.4169 -0.3898 -0.4254
-0.5105 -0.6330 -0.7340 -0.7789 -0.7667 -0.6872
-0.5843 -0.4824 -0.3945 -0.3113 -0.2243 -0.0709
0.1105 0.2639 0.4135 0.5454 0.6679 0.7754
0.8839 0.9428 0.9494 0.9138 0.7511 0.5351
0.3452 0.1825 0.0843 0.0675 0.1264 0.1844
0.1311 -0.0055 -0.1663 -0.3113 -0.3814 -0.4011
-0.3580 -0.2065 -0.0494 0.0394 0.0824 0.0216
-0.1467 -0.3749 -0.5572 -0.6264 -0.5862 -0.4319
-0.2309 -0.0410 0.0637 0.0721 0.0329 -0.0607
-0.1785 -0.2757 -0.3244 -0.2898 -0.1906 -0.0279
0.1918 0.4144 0.6267 0.8128 0.9428 1.0139
0.9877 0.8053 0.5266 0.2040 -0.1542 -0.4628
-0.6620 -0.7920 -0.8658 -0.8995 -0.9322 -0.9163
-0.8602 -0.7901 -0.6872 -0.5152 -0.2627 -0.0270
0.1479 0.2676 0.3228 0.3190 0.3041 0.3143
0.3265 0.3723 0.4041 0.3985 0.3677 0.2732
0.1329 -0.0233 -0.1532 -0.2299 -0.2524 -0.2655
-0.2720 -0.2776 -0.3010 -0.2767 -0.2000 -0.1102
-0.0775 -0.1233 -0.2009 -0.2945 -0.3281 -0.2889
-0.1841 -0.0214 0.1039 0.1563 0.1638 0.1282
0.0824 0.0487 -0.0270 -0.1121 -0.2075 -0.2701
-0.2365 -0.1776 -0.0999 -0.0317 0.0300 0.0908
0.1423 0.2105 0.2685 0.3265 0.3256 0.2676
0.2124 0.1787 0.2059 0.2564 0.2947 0.2984
0.2573 0.2115 0.2264 0.3181 0.4116 0.4630
0.4247 0.2498 -0.0195 -0.3515 -0.7003 -0.9781
-1.1436 -1.1511 -1.0548 -0.9089 -0.6975 -0.5395
-0.4282 -0.3150 -0.2309 -0.0953 0.1077 0.3648
0.6837 0.9933 1.2102 1.3168 1.3009 1.1925
1.0737 0.9390 0.8736 0.8951 0.9026 0.8904
0.7950 0.6444 0.4640 0.3040 0.2161 0.1853
0.2143 0.2161 0.1937 0.1245 0.0413 -0.0018
-0.0504 -0.1000 -0.1729 -0.3132 -0.4600 -0.5750
-0.6564 -0.6658 -0.6246 -0.5619 -0.5161 -0.4291
-0.2496 -0.0064 0.2432 0.4125 0.4780 0.4013
0.2563 0.1778 0.1881 0.2040 0.1469 -0.0055
-0.2365 -0.4675 -0.6349 -0.7247 -0.7827 -0.8462
-0.8930 -0.9098 -0.8743 -0.7640 -0.6658 -0.6283
-0.6573 -0.7406 -0.7574 -0.6798 -0.5040 -0.2683
-0.1205 -0.0364 -0.0130 -0.0401 -0.0074 0.0281
0.0001 -0.0878 -0.2309 -0.3815 -0.4572 -0.3833
-0.1477 0.1796 0.4854 0.7164 0.8474 0.9212
0.9727 0.9979 1.0157 1.0082 0.9521 0.8371
0.6912 0.5565 0.4742 0.4349 0.4153 0.4003
0.3470 0.2657 0.1881 0.0908 -0.0448 -0.2075
-0.3684 -0.4928 -0.5423 -0.5405 -0.5339 -0.5442
-0.5844 -0.5956 -0.5461 -0.4142 -0.2337 -0.1206
-0.1047 -0.1795 -0.3020 -0.3955 -0.3974 -0.3113
-0.1776 -0.0457 0.0553 0.0992 0.0543 -0.0467
-0.1972 -0.3768 -0.5489 -0.5947 -0.4890 -0.2898
-0.0242 0.1731 0.2432 0.2170 0.1460 0.0683
0.0730 0.1329 0.2002 0.2825 0.3498 0.4312
0.4826 0.4555 0.2909 0.0150 -0.3375 -0.6957
-0.9847 -1.1726 -1.1876 -1.0875 -0.8827 -0.6695
-0.4918 -0.3029 -0.1692 -0.0504 0.0674 0.1637
0.2900 0.4658 0.6874 0.9352 1.1775 1.3271
1.3430 1.2541 1.1167 1.0493 1.0643 1.1457
1.2523 1.2626 1.1494 0.9914 0.8539 0.7585
0.6369 0.4405 0.2133 -0.0411 -0.2478 -0.3366
-0.3329 -0.2786 -0.2534 -0.3011 -0.3908 -0.4152
-0.3581 -0.1823 0.0665 0.2348 0.2984 0.2049
0.0253 -0.1318 -0.2562 -0.2927 -0.2571 -0.1701
-0.0439 0.0889 0.2236 0.3508 0.4246 0.3910
0.2806 0.1357 0.0178 -0.0299 -0.0467 -0.0402
-0.0364 -0.0907 -0.1327 -0.1309 -0.0822 0.0328
0.0861 0.0262 -0.1122 -0.2992 -0.4385 -0.4890
-0.4788 -0.4217 -0.3525 -0.3432 -0.3993 -0.5106
-0.6564 -0.8192 -0.9800 -1.0595 -1.0539 -0.9651
-0.7902 -0.6275 -0.5508 -0.5517 -0.5788 -0.6069
-0.6321 -0.6462 -0.6817 -0.7228 -0.7387 -0.6723
-0.4367 -0.0888 0.2909 0.6444 0.9128 1.0512
1.0821 1.0680 1.0082 0.8941 0.7024 0.4461
0.1244 -0.2244 -0.4825 -0.6340 -0.7060 -0.7481
-0.8248 -0.8762 -0.8669 -0.7584 -0.4919 -0.2048
-0.0308 0.0431 0.0150 -0.0626 -0.1253 -0.1477
-0.0766 0.0505 0.1852 0.3526 0.5350 0.6678
0.7276 0.7267 0.6453 0.5200 0.4274 0.4508
0.5873 0.7098 0.7659 0.7444 0.6462 0.5770
0.5621 0.5827 0.6818 0.7285 0.6649 0.5724
0.4564 0.3975 0.4012 0.4237 0.5060 0.5443
0.5359 0.6070 0.7323 0.8698 0.9371 0.8529
0.6322 0.4012 0.2825 0.2432 0.2750 0.3236
0.2871 0.1656 0.0318 -0.0243 -0.0121 -0.0243
-0.1468 -0.4133 -0.8033 -1.2419 -1.6188 -1.8245
-1.7693 -1.5140 -1.2260 -0.9988 -0.8660 -0.8070
-0.7500 -0.6948 -0.6986 -0.7780 -0.9034 -0.9875
-0.9501 -0.7668 -0.4751 -0.1851 0.0907 0.2516
0.2918 0.3367 0.3535 0.3647 0.3545 0.3283
0.3068 0.2591 0.1880 0.0674 -0.0982 -0.2946
-0.4947 -0.6340 -0.7322 -0.8014 -0.8351 -0.8435
-0.7388 -0.5910 -0.4694 -0.3469 -0.2796 -0.2534
-0.2095 -0.1674 -0.2020 -0.3348 -0.5545 -0.8042
-1.0399 -1.2082 -1.2662 -1.2803 -1.2335 -1.1306
-1.0324 -0.8734 -0.6518 -0.4358 -0.2394 -0.0813
0.0589 0.2534 0.5041 0.7622 1.0427 1.3149
1.5141 1.6487 1.7123 1.7404 1.7451 1.6899
1.5580 1.3177 1.0175 0.6855 0.3629 0.1150
-0.0496 -0.1571 -0.2207 -0.2684 -0.3516 -0.3965
-0.3834 -0.3095 -0.1421 0.0009 0.0168 -0.0683
-0.1973 -0.3610 -0.4947 -0.5471 -0.5237 -0.4713
-0.5312 -0.6817 -0.8707 -1.0296 -0.9997 -0.7706
-0.3956 -0.0252 0.2637 0.4526 0.5321 0.6172
0.7566 0.9876 1.2298 1.4046 1.5187 1.5440
1.4869 1.3897 1.2868 1.1447 0.9501 0.6967
0.4105 0.1973 0.0645 -0.0196 -0.1057 -0.2450
-0.4077 -0.6023 -0.7369 -0.7042 -0.5078 -0.1281
0.2684 0.5770 0.8267 0.9193 0.9006 0.8417
0.7678 0.8080 0.9071 0.9511 0.8725 0.5069
-0.1057 -0.8043 -1.5113 -2.0630 -2.3838 -2.4941
-2.4436 -2.3567 -2.2762 -2.1088 -1.7282 -1.1615
-0.5078 0.0879 0.4629 0.6490 0.6976 0.7453
0.8613 0.9651 1.0109 0.9015 0.6621 0.3815
0.0963 -0.0804 -0.1160 -0.0617 0.0776 0.2263
0.2665 0.1599 -0.0786 -0.3993 -0.7061 -0.9221
-1.0867 -1.1288 -1.0147 -0.8099 -0.5088 -0.1871
0.0729 0.1973 0.1543 0.0084 -0.1375 -0.1861
-0.0505 0.2618 0.6901 1.1633 1.5617 1.8638
1.9900 1.8685 1.5730 1.1344 0.6322 0.1777
-0.2656 -0.7341 -1.2289 -1.7638 -2.2669 -2.6690
-2.9393 -3.0515 -3.0291 -2.8738 -2.5765 -2.1435
-1.6123 -1.0212 -0.4209 0.0963 0.4984 0.7650
0.9604 1.1839 1.4542 1.7731 2.0452 2.1705
2.1275 1.9143 1.5402 1.1259 0.7388 0.4479
0.3011 0.2852 0.4554 0.7528 1.0829 1.3438
1.4261 1.2999 1.0502 0.7893 0.5695 0.4171
0.2730 0.1674 0.1468 0.1702 0.2562 0.3609
0.3198 0.1084 -0.1805 -0.4789 -0.6266 -0.5368
-0.3105 -0.0786 0.0449 0.0290 -0.0515 -0.1515
-0.1852 -0.1394 -0.1263 -0.1646 -0.2769 -0.4340
-0.5855 -0.7042 -0.7444 -0.7781 -0.8679 -1.0044
-1.1354 -1.2158 -1.1999 -1.0764 -0.9240 -0.7594
-0.6107 -0.4873 -0.3236 -0.0964 0.1197 0.2805
0.3076 0.1645 0.0074 -0.1600 -0.2843 -0.3302
-0.4583 -0.6640 -0.9586 -1.3243 -1.6104 -1.7891
-1.8452 -1.7610 -1.5814 -1.3364 -1.0278 -0.7164
-0.4648 -0.2778 -0.1805 -0.0964 0.0392 0.2178
0.4535 0.6593 0.7341 0.6826 0.4881 0.1730
-0.1553 -0.4966 -0.8249 -1.0662 -1.2205 -1.2102
-1.0306 -0.7258 -0.2685 0.2683 0.7949 1.2634
1.6103 1.7805 1.7824 1.6917 1.5608 1.4074
1.2063 1.0118 0.8435 0.6471 0.4339 0.2057
0.0579 0.0392 0.1299 0.2861 0.4002 0.3703
0.1496 -0.3274 -0.9904 -1.6011 -2.0621 -2.2651
-2.2052 -1.9406 -1.5094 -1.0306 -0.5322 -0.0403
0.4180 0.8435 1.2465 1.5617 1.6805 1.6234
1.4570 1.1970 0.9482 0.7761 0.6041 0.3955
0.0925 -0.3049 -0.6958 -0.9876 -1.0802 -1.0063
-0.8314 -0.5939 -0.3582 -0.1123 0.1617 0.4329
0.6592 0.7574 0.7172 0.5769 0.3880 0.2197
0.0682 -0.0571 -0.1366 -0.1637 -0.1001 0.0673
0.2562 0.3899 0.3993 0.2038 -0.1852 -0.6949
-1.1934 -1.5441 -1.6918 -1.6834 -1.5282 -1.2513
-0.9923 -0.8025 -0.6902 -0.6397 -0.5154 -0.2395
0.1486 0.5825 0.8968 1.0324 1.0651 1.0529
1.0978 1.1745 1.2989 1.5000 1.6889 1.8600
1.9732 1.9516 1.7945 1.5317 1.1988 0.9239
0.8135 0.8528 0.9893 1.1334 1.1736 1.0202
0.7097 0.3684 0.0691 -0.2011 -0.4798 -0.7183
-0.8904 -0.9783 -0.9231 -0.7146 -0.4134 -0.1675
-0.0693 -0.1291 -0.3059 -0.4826 -0.5238 -0.4368
-0.3648 -0.3489 -0.4555 -0.7192 -0.9858 -1.1045
-1.0176 -0.7679 -0.4901 -0.4050 -0.5687 -0.8408
-1.1102 -1.3224 -1.4683 -1.5843 -1.7489 -1.8817
-1.8826 -1.6974 -1.2860 -0.7810 -0.3386 -0.0945
-0.0768 -0.2142 -0.3975 -0.4985 -0.4621 -0.3078
-0.1104 0.0214 0.0485 0.0747 0.1243 0.2010
0.3824 0.5872 0.6957 0.7041 0.6199 0.5068
0.5077 0.6751 0.9295 1.1371 1.1754 1.0183
0.7537 0.5367 0.4497 0.4881 0.5937 0.6854
0.6985 0.5573 0.3384 0.1346 -0.0132 -0.0553
-0.0618 -0.0347 0.0579 0.1851 0.3020 0.4254
0.5367 0.5573 0.5498 0.6283 0.8911 1.2493
1.5112 1.5897 1.4953 1.3849 1.3559 1.4382
1.5598 1.5317 1.2680 0.7565 0.1458 -0.4004
-0.8193 -1.1027 -1.3421 -1.6498 -2.1155 -2.6523
-3.0320 -3.1058 -2.8814 -2.4335 -1.9546 -1.5937
-1.3599 -1.2841 -1.2271 -1.1046 -0.9231 -0.6005
-0.1469 0.3768 0.9145 1.4176 1.8263 2.1040
2.2041 2.1143 1.9020 1.6327 1.4111 1.2596
1.1735 1.1352 1.0763 1.0136 0.9108 0.7106
0.4469 0.2019 0.0766 0.1729 0.5086 0.9182
1.3054 1.5710 1.6383 1.5514 1.2474 0.8397
0.4338 0.0738 -0.1441 -0.2788 -0.3835 -0.5257
-0.7333 -0.9129 -0.9821 -0.9213 -0.7520 -0.5743
-0.4312 -0.3611 -0.3845 -0.4340 -0.5126 -0.6360
-0.7960 -0.9241 -0.9793 -0.9680 -0.8427 -0.6987
-0.6510 -0.6706 -0.7614 -0.8857 -0.9447 -0.8857
-0.7090 -0.4855 -0.3041 -0.1554 0.0111 0.2262
0.5526 0.9341 1.2624 1.4700 1.4765 1.3465
1.1969 1.0557 0.9285 0.7518 0.5498 0.4357
0.3842 0.4431 0.5862 0.6966 0.7929 0.8509
0.9509 1.2072 1.5906 1.9740 2.2293 2.3042
2.1695 1.8525 1.3989 0.8434 0.1897 -0.5575
-1.3346 -2.0847 -2.7168 -3.1629 -3.4033 -3.3864
-3.2424 -3.1480 -3.1236 -3.1882 -3.2462 -3.2059
-3.0666 -2.8291 -2.5410 -2.2455 -1.9388 -1.5946
-1.2495 -0.8811 -0.4818 -0.1226 0.1364 0.2224
0.1514 -0.0254 -0.1750 -0.1647 -0.0179 0.0765
-0.0123 -0.1432 -0.1788 0.0036 0.4946 1.1548
1.8038 2.2911 2.5258 2.5351 2.3949 2.2256
2.0638 1.8225 1.4297 0.9481 0.4347 0.0064
-0.1956 -0.2050 -0.0647 0.0868 0.1009 -0.0469
-0.3312 -0.6641 -1.0139 -1.3440 -1.5619 -1.6470
-1.6021 -1.4263 -1.1710 -0.9138 -0.7436 -0.7109
-0.7417 -0.6716 -0.4126 0.0195 0.5338 0.9771
1.2913 1.5270 1.7412 1.9871 2.1891 2.2490
2.1480 1.9114 1.6420 1.4120 1.2726 1.2249
1.1604 0.9855 0.7003 0.4057 0.1719 -0.0076
-0.1479 -0.2901 -0.4481 -0.6267 -0.8540 -1.1317
-1.4459 -1.8322 -2.2586 -2.5859 -2.6963 -2.5485
-2.2006 -1.7686 -1.3646 -1.0915 -0.9952 -1.0569
-1.1935 -1.3328 -1.4665 -1.5198 -1.4534 -1.2795
-0.9774 -0.5669 -0.1264 0.2542 0.5385 0.7629
0.9621 1.1211 1.2633 1.3587 1.3371 1.2081
0.9528 0.6012 0.2551 -0.0853 -0.4294 -0.7044
-0.9082 -1.1102 -1.2748 -1.3955 -1.4918 -1.5180
-1.4965 -1.3786 -1.1355 -0.8250 -0.4799 -0.1807
-0.0067 0.0840 0.1289 0.1588 0.2018 0.1859
0.1654 0.1710 0.1953 0.3150 0.4431 0.5123
0.4852 0.2823 -0.0002 -0.2480 -0.4762 -0.6202
-0.7175 -0.8821 -0.9849 -0.9569 -0.8110 -0.5136
-0.1161 0.2673 0.5843 0.8219 0.9986 1.1997
1.4624 1.7355 1.9600 2.0105 1.8085 1.3502
0.7143 0.0952 -0.4341 -0.8288 -1.0298 -1.0270
-0.8446 -0.5155 -0.0759 0.4440 0.9864 1.4213
1.7383 1.9749 2.0984 2.0909 1.9964 1.8244
1.5887 1.3727 1.2268 1.2006 1.2427 1.2586
1.2127 1.0921 0.9163 0.7152 0.5721 0.4693
0.2888 -0.0039 -0.4379 -0.9840 -1.4890 -1.8631
-2.0894 -2.1015 -1.9276 -1.6003 -1.0962 -0.5641
-0.0853 0.3196 0.5787 0.7573 0.9509 1.1202
1.1828 1.1136 0.9602 0.7751 0.5712 0.3832
0.2626 0.1812 0.0597 -0.0937 -0.3191 -0.5903
-0.8260 -1.0925 -1.3889 -1.8079 -2.4335 -3.1602
-3.8307 -4.2581 -4.3002 -3.9411 -3.3425 -2.7506
-2.3438 -2.1296 -2.0062 -1.8210 -1.4161 -0.8213
-0.2564 0.1962 0.4917 0.6544 0.8143 0.9687
1.0996 1.0528 0.7358 0.2691 -0.2462 -0.6408
-0.7988 -0.7792 -0.6950 -0.5968 -0.5202 -0.3789
-0.0283 0.4459 0.9191 1.2473 1.2932 1.1744
1.0322 0.8985 0.8200 0.7629 0.6722 0.5740
0.4739 0.4440 0.5207 0.6497 0.7629 0.8041
0.7517 0.5581 0.1868 -0.3266 -0.8653 -1.2627
-1.4451 -1.4133 -1.1879 -0.8774 -0.5782 -0.3696
-0.3041 -0.3453 -0.4397 -0.5155 -0.5828 -0.6511
-0.6866 -0.6792 -0.5810 -0.3556 -0.0404 0.3019
0.6142 0.7779 0.8143 0.8330 0.9004 1.0678
1.2595 1.3895 1.4877 1.5569 1.5905 1.6532
1.7654 1.9094 1.9852 1.8832 1.6504 1.3652
1.1136 0.9668 0.8658 0.7358 0.5880 0.4739
0.4047 0.3262 0.2439 0.1644 0.0858 0.0877
0.2485 0.5871 0.9976 1.3408 1.5017 1.4362
1.1753 0.8386 0.6189 0.5384 0.4861 0.3121
-0.0947 -0.6567 -1.1991 -1.5433 -1.6190 -1.5199
-1.4282 -1.4582 -1.6125 -1.8388 -2.0455 -2.2101
-2.3410 -2.4607 -2.6412 -2.9423 -3.2902 -3.5221
-3.5427 -3.3229 -2.8684 -2.2194 -1.5134 -0.8335
-0.1985 0.3009 0.6058 0.7133 0.6432 0.4328
0.1756 0.0007 -0.0423 0.0400 0.2130 0.4430
0.7124 0.9976 1.2763 1.4596 1.4671 1.3343
1.0883 0.8012 0.5272 0.2682 0.0765 -0.0788
-0.2593 -0.4388 -0.5810 -0.6427 -0.5445 -0.3023
-0.0554 0.0989 0.1120 -0.0002 -0.1433 -0.2481
-0.2378 -0.1050 0.0587 0.1709 0.1260 -0.0470
-0.2555 -0.5539 -0.8344 -0.9990 -1.0738 -1.0261
-0.8700 -0.5623 -0.1153 0.4477 1.0864 1.7037
2.2199 2.5388 2.7361 2.8839 2.9680 2.9895
2.9129 2.7426 2.4799 2.1797 1.9057 1.6438
1.3258 0.8620 0.2111 -0.6016 -1.3946 -1.9753
-2.2737 -2.2793 -2.0707 -1.7677 -1.4844 -1.2637
-1.0804 -1.0028 -1.0486 -1.0766 -1.0243 -0.8971
-0.6801 -0.4510 -0.3061 -0.3191 -0.5268 -0.8213
-1.0308 -1.1487 -1.1954 -1.1992 -1.2908 -1.4900
-1.7855 -2.0595 -2.1287 -1.9669 -1.6078 -1.1561
-0.7110 -0.3089 0.0418 0.3589 0.6918 1.0303
1.3025 1.4914 1.5260 1.4381 1.3099 1.1678
1.1594 1.2809 1.4530 1.6167 1.6363 1.4960
1.2304 0.9041 0.6946 0.6478 0.7039 0.7629
0.6796 0.4963 0.2840 0.0746 -0.0667 -0.1686
-0.3023 -0.4800 -0.7194 -0.9775 -1.1608 -1.2272
-1.1683 -1.0149 -0.8485 -0.7531 -0.7054 -0.6951
-0.6923 -0.6306 -0.5333 -0.4220 -0.3510 -0.3603
-0.4622 -0.6315 -0.7662 -0.8055 -0.7194 -0.5268
-0.2939 -0.1237 -0.0676 -0.1013 -0.2593 -0.4894
-0.6932 -0.8513 -0.8550 -0.6671 -0.3051 0.2317
0.8601 1.4942 2.0150 2.3555 2.4967 2.4452
2.2068 1.8215 1.3726 0.8629 0.3542 -0.1723
-0.7596 -1.3217 -1.8557 -2.2653 -2.4346 -2.3569
-2.0193 -1.5115 -0.9560 -0.3930 0.1727 0.7170
1.2145 1.6110 1.8794 1.9973 1.9271 1.6896
1.2931 0.7750 0.2560 -0.1808 -0.5661 -0.8793
-1.0926 -1.1693 -1.1244 -0.9869 -0.6568 -0.1911
0.2578 0.6338 0.8573 0.8984 0.8376 0.6759
0.4916 0.3747 0.2980 0.3027 0.4009 0.6141
0.9704 1.4128 1.8243 2.1086 2.2049 2.1114
1.9159 1.6952 1.4904 1.3481 1.3481 1.1517
0.8889 0.5626 0.1922 -0.1856 -0.4933 -0.6607
-0.6663 -0.5671 -0.3605 -0.0378 0.3709 0.8553
1.3341 1.7755 2.1028 2.2263 2.2188 2.1701
2.0981 2.0084 1.8662 1.4940 0.9002 0.2156
-0.4605 -0.9721 -1.2788 -1.4200 -1.4312 -1.3817
-1.3013 -1.1610 -0.9234 -0.6251 -0.3549 -0.1444
-0.0519 -0.0472 -0.0556 -0.0116 0.0735 0.0267
-0.1323 -0.4016 -0.7813 -1.1703 -1.5584 -1.9316
-2.3169 -2.6975 -3.0398 -3.3222 -3.4587 -3.3914
-3.1548 -2.8284 -2.5002 -2.2402 -2.0008 -1.6940
-1.2863 -0.7607 -0.1790 0.3400 0.7019 0.8815
0.9020 0.7458 0.4831 0.2072 -0.0425 -0.2324
-0.3324 -0.3090 -0.2426 -0.1847 -0.1444 -0.1127
-0.0687 -0.0799 -0.1304 -0.1697 -0.1323 0.0248
0.2773 0.5803 0.8571 1.1087 1.2920 1.4313
1.5407 1.5791 1.6174 1.5987 1.4575 1.1901
0.7973 0.3802 0.0286 -0.2361 -0.3923 -0.4241
-0.3708 -0.2651 -0.1314 0.0192 0.1913 0.3222
0.4419 0.5205 0.4784 0.3381 0.0912 -0.1688
-0.3390 -0.4559 -0.5606 -0.6364 -0.7000 -0.7925
-0.8786 -0.9637 -0.9843 -0.9216 -0.8608 -0.8365
-0.8767 -0.9225 -0.9366 -0.9235 -0.8935 -0.9122
-1.0591 -1.3256 -1.6772 -2.1093 -2.4731 -2.7012
-2.7882 -2.6938 -2.4759 -2.1383 -1.7427 -1.3602
-0.9179 -0.4166 0.0790 0.5335 0.9422 1.3023
1.5744 1.7465 1.7895 1.7007 1.5033 1.1882
0.7580 0.2231 -0.3278 -0.8197 -1.1563 -1.2555
-1.2162 -1.1273 -1.0899 -1.1863 -1.3518 -1.4865
-1.5575 -1.5444 -1.4575 -1.3686 -1.2994 -1.2536
-1.1676 -0.9469 -0.5747 -0.0846 0.4120 0.8001
1.0245 1.0872 0.9693 0.6888 0.3465 -0.0276
-0.4204 -0.7701 -1.0638 -1.2676 -1.3247 -1.2265
-0.9263 -0.4409 0.1314 0.6953 1.1648 1.5173
1.7811 1.9868 2.1252 2.1925 2.1766 2.1458
2.1290 2.0934 2.1364 2.1925 2.1710 2.0859
1.9438 1.8914 1.9419 2.0672 2.2767 2.4450
2.5189 2.4983 2.3627 2.1645 1.9213 1.6165
1.2705 0.8973 0.5541 0.3007 0.2277 0.3998
0.8384 1.4949 2.1972 2.8790 3.4176 3.6944
3.6972 3.3868 2.8387 2.1607 1.4285 0.7570
0.2258 -0.2371 -0.6897 -1.1077 -1.5061 -1.8119
-2.0046 -2.1252 -2.1327 -2.1420 -2.1794 -2.2449
-2.3833 -2.4506 -2.4086 -2.2140 -1.8708 -1.5267
-1.2284 -1.0179 -0.9487 -1.0348 -1.1938 -1.3640
-1.4958 -1.5351 -1.5491 -1.4771 -1.3144 -1.1395
-0.9768 -0.9001 -0.9310 -1.0647 -1.2798 -1.5379
-1.7624 -1.8755 -1.8521 -1.7081 -1.4818 -1.1405
-0.6897 -0.1772 0.3745 0.8636 1.2209 1.3929
1.3518 1.1648 0.8730 0.5634 0.3577 0.2408
0.1548 0.1576 0.2763 0.5382 0.9487 1.4023
1.7558 1.9307 1.8886 1.6333 1.3303 1.0731
0.9571 1.0235 1.1423 1.2340 1.2012 1.0563
0.8543 0.6579 0.5391 0.4877 0.4101 0.2015
-0.1071 -0.4391 -0.6486 -0.6822 -0.6205 -0.5691
-0.7140 -1.1021 -1.6876 -2.4048 -3.0193 -3.4476
-3.7019 -3.7590 -3.7749 -3.8235 -3.8432 -3.8076
-3.6758 -3.4588 -3.2203 -3.0155 -2.9014 -2.8098
-2.6321 -2.3197 -1.8793 -1.4294 -1.0638 -0.8253
-0.6149 -0.2810 0.2511 1.0591 2.0672 3.0940
3.9310 4.4248 4.5875 4.4734 4.1732 3.7879
3.3718 2.9257 2.4385 1.9737 1.5033 1.0376
0.6410 0.2455 -0.1286 -0.4559 -0.6888 -0.8431
-0.9525 -0.9684 -0.9394 -0.8861 -0.8562 -0.8244
-0.7243 -0.5644 -0.3774 -0.2147 -0.1324 -0.1623
-0.2034 -0.2240 -0.1501 0.0781 0.3614 0.7383
1.1573 1.5444 1.9699 2.3982 2.7620 3.0239
3.1483 3.0959 2.8901 2.5619 2.1551 1.7502
1.3686 1.0684 0.8561 0.6794 0.4942 0.2258
-0.1473 -0.6448 -1.2134 -1.7175 -2.0916 -2.3534
-2.5180 -2.6228 -2.7359 -2.8238 -2.8491 -2.7621
-2.5143 -2.1907 -1.7549 -1.1938 -0.5504 0.1725
0.8346 1.3723 1.7567 1.8923 1.8063 1.5612
1.2489 0.9908 0.8103 0.6719 0.5606 0.4633
0.3605 0.3221 0.3642 0.4306 0.4886 0.4577
0.2651 -0.1595 -0.7664 -1.4416 -2.1037 -2.7097
-3.2260 -3.6047 -3.8581 -3.9133 -3.7506 -3.3934
-2.8435 -2.1982 -1.5436 -0.9656 -0.5345 -0.2605
-0.1427 -0.1548 -0.1941 -0.2119 -0.2540 -0.3147
-0.3849 -0.4457 -0.4737 -0.4747 -0.4232 -0.3063
-0.1015 0.2033 0.5943 0.9983 1.2938 1.4013
1.2994 1.1310 1.0319 1.0590 1.2508 1.4649
1.6005 1.6781 1.6576 1.6099 1.6155 1.6959
1.8717 2.0915 2.3458 2.5712 2.7115 2.7873
2.8134 2.7882 2.7293 2.6816 2.6460 2.6619
2.7171 2.7592 2.8013 2.8985 3.0472 3.2053
3.3081 3.2614 3.0697 2.7143 2.2289 1.7015
1.0992 0.4166 -0.3260 -1.0910 -1.7325 -2.1954
-2.4507 -2.4788 -2.4096 -2.2983 -2.1477 -1.9625
-1.7007 -1.3631 -1.0030 -0.7047 -0.5991 -0.7627
-1.1340 -1.6072 -2.0794 -2.4582 -2.7406 -2.9819
-3.1250 -3.1755 -3.1512 -2.9669 -2.5611 -1.9495
-1.2864 -0.6486 -0.0482 0.4399 0.8757 1.3106
1.6557 1.9203 2.0793 2.0765 1.9923 1.8969
1.8801 2.0054 2.2364 2.4852 2.6339 2.5974
2.4235 2.1588 1.8277 1.5238 1.1890 0.7429
0.2370 -0.3101 -0.7898 -1.1471 -1.4220 -1.6016
-1.7344 -1.8709 -2.0018 -2.1000 -2.1552 -2.1421
-2.0795 -1.9859 -1.8326 -1.6549 -1.4622 -1.2453
-1.0405 -0.8665 -0.7206 -0.5682 -0.3943 -0.2287
-0.0997 -0.0557 -0.1072 -0.2718 -0.5214 -0.8076
-1.0872 -1.3556 -1.6605 -1.9139 -2.1281 -2.3207
-2.3647 -2.1982 -1.8419 -1.3743 -0.8768 -0.4289
-0.0511 0.2407 0.5334 0.8439 1.0684 1.2217
1.2713 1.2825 1.3592 1.4939 1.7295 2.0241
2.2392 2.2981 2.1934 1.9923 1.8418 1.8296
1.8633 1.8576 1.7520 1.4714 1.0880 0.6634
0.2426 -0.0791 -0.4205 -0.8506 -1.2930 -1.7110
-1.9785 -2.0037 -1.8064 -1.4753 -1.1218 -0.7861
-0.4513 -0.1380 0.2042 0.6054 0.9720 1.2526
1.3816 1.4050 1.3770 1.3330 1.2769 1.0796
0.8102 0.4642 0.0518 -0.3073 -0.5925 -0.7983
-1.0190 -1.2771 -1.6053 -1.9962 -2.3236 -2.5003
-2.4386 -2.1777 -1.8223 -1.4379 -1.0489 -0.6645
-0.2475 0.2753 0.8542 1.4499 2.0110 2.4786
2.8630 3.1828 3.4633 3.7186 3.8767 3.8655
3.7224 3.4877 3.2342 2.9939 2.7573 2.5796
2.4365 2.3121 2.2252 2.1083 1.9549 1.8062
1.6622 1.5294 1.4041 1.3012 1.1937 1.0506
0.9075 0.7728 0.6353 0.5390 0.4810 0.4333
0.4118 0.4464 0.5596 0.7045 0.7999 0.7167
0.4343 -0.0183 -0.5308 -0.8740 -1.0227 -1.0153
-0.8909 -0.7272 -0.5916 -0.4728 -0.3279 -0.1727
-0.0389 -0.0025 -0.1035 -0.3980 -0.8357 -1.3052
-1.7400 -2.0253 -2.1786 -2.2282 -2.1870 -2.0683
-1.8859 -1.6867 -1.4688 -1.3192 -1.2416 -1.2116
-1.2509 -1.3482 -1.5427 -1.7868 -2.0299 -2.2432
-2.3685 -2.4246 -2.4339 -2.4059 -2.3713 -2.3470
-2.3226 -2.2862 -2.2516 -2.2076 -2.2057 -2.2824
-2.3367 -2.3731 -2.3105 -2.0655 -1.7428 -1.3519
-0.9376 -0.5916 -0.3345 -0.0829 0.2341 0.6232
1.0646 1.5509 2.0764 2.5786 3.0313 3.3698
3.5615 3.5812 3.4745 3.3062 3.0556 2.7891
2.5076 2.2064 1.8960 1.6117 1.3601 1.0459
0.6802 0.2856 -0.1306 -0.4785 -0.7076 -0.8039
-0.8264 -0.8460 -0.8264 -0.7590 -0.6375 -0.4270
-0.1268 0.2033 0.5231 0.8186 1.0739 1.3320
1.5967 1.8716 2.1335 2.3140 2.4103 2.3729
2.1672 1.8501 1.4433 0.9552 0.4408 -0.0820
-0.5570 -0.9330 -1.2145 -1.3491 -1.3014 -1.1406
-0.9797 -0.8348 -0.7039 -0.5673 -0.4317 -0.3073
-0.1708 -0.0932 -0.1315 -0.3204 -0.6029 -0.8956
-1.1032 -1.2023 -1.1967 -1.0705 -0.9208 -0.7413
-0.5673 -0.4607 -0.3616 -0.2110 0.0415 0.3922
0.7653 1.0814 1.3685 1.6696 2.0044 2.4327
2.8919 3.3174 3.6279 3.7401 3.6747 3.4465
3.1107 2.6955 2.1737 1.5088 0.7223 -0.1306
-1.0125 -1.8616 -2.6107 -3.1587 -3.5010 -3.6301
-3.5730 -3.4374 -3.2261 -2.9661 -2.6846 -2.3376
-1.9570 -1.6437 -1.4212 -1.2893 -1.1705 -0.9695
-0.6973 -0.3878 -0.1540 -0.0436 -0.0203 -0.0165
0.0265 0.1312 0.2313 0.1967 0.0480 -0.1680
-0.4065 -0.5758 -0.6337 -0.5711 -0.4448 -0.2625
-0.0736 0.0630 0.1574 0.2491 0.3959 0.5511
0.7092 0.8205 0.8242 0.7587 0.6269 0.4754
0.2715 0.0050 -0.2195 -0.4130 -0.5496 -0.6216
-0.7151 -0.8011 -0.8993 -1.0574 -1.2500 -1.4109
-1.5100 -1.5577 -1.5315 -1.4343 -1.2566 -1.0714
-0.9330 -0.8619 -0.8881 -0.9012 -0.8432 -0.6917
-0.4673 -0.2335 -0.0474 0.0499 0.0817 0.0527
0.0312 0.0405 0.0929 0.2444 0.4155 0.5362
0.5810 0.5530 0.5268 0.5334 0.5801 0.6839
0.7830 0.8691 0.9542 0.9888 1.0486 1.1945
1.3666 1.5059 1.5770 1.5555 1.4872 1.4031
1.2880 1.2432 1.2787 1.3806 1.6116 1.9090
2.2588 2.5917 2.8086 2.9545 3.0022 2.9508
2.8386 2.6403 2.3541 1.9735 1.4573 0.8167
0.1097 -0.6917 -1.5231 -2.2787 -2.9128 -3.3542
-3.5151 -3.3767 -3.0278 -2.5471 -2.0431 -1.5961
-1.2295 -0.9508 -0.7039 -0.4383 -0.1175 0.2547
0.6287 0.9963 1.3002 1.5003 1.6369 1.6556
1.5677 1.3759 1.0655 0.6736 0.2285 -0.1802
-0.5487 -0.8610 -1.1640 -1.4960 -1.7943 -2.0122
-2.0833 -2.0552 -1.9346 -1.7214 -1.4614 -1.1631
-0.8526 -0.5599 -0.3289 -0.1961 -0.2045 -0.2588
-0.3130 -0.3682 -0.3467 -0.3149 -0.2878 -0.3065
-0.4009 -0.4879 -0.5721 -0.6441 -0.6861 -0.7544
-0.8685 -0.9882 -1.1182 -1.2314 -1.3099 -1.3903
-1.4137 -1.4053 -1.4193 -1.3716 -1.2304 -0.9602
-0.5590 -0.0867 0.4454 1.0393 1.6107 2.1035
2.5140 2.7684 2.8909 2.8891 2.7731 2.6655
2.5861 2.5262 2.4589 2.2905 2.0539 1.8070
1.5274 1.2104 0.8298 0.3874 -0.1045 -0.6188
-1.1098 -1.5512 -1.8692 -2.0188 -1.9748 -1.7672
-1.4960 -1.2080 -0.9368 -0.6759 -0.3972 -0.1007
0.1723 0.3874 0.5202 0.5492 0.5670 0.6839
0.9457 1.2384 1.4844 1.6509 1.5835 1.3310
0.9588 0.4978 0.0349 -0.4234 -0.8190 -1.1061
-1.2707 -1.2996 -1.2071 -1.0275 -0.7638 -0.4281
-0.0549 0.3369 0.7334 1.1028 1.3956 1.6153
1.7593 1.8388 1.8837 1.9043 1.8753 1.7257
1.4302 0.9953 0.3790 -0.3589 -1.0864 -1.7691
-2.3966 -2.9858 -3.4796 -3.8134 -3.9668 -3.9275
-3.7302 -3.4543 -3.2102 -2.9951 -2.8390 -2.7258
-2.5612 -2.3573 -2.0889 -1.8140 -1.5634 -1.2912
-1.0247 -0.7432 -0.4580 -0.2167 -0.0502 0.0227
0.0208 -0.0185 -0.0587 -0.0979 -0.1166 -0.1325
-0.1120 0.0059 0.2079 0.5193 0.9261 1.4142
1.9155 2.3317 2.6562 2.8928 3.0611 3.1649
3.2407 3.2640 3.1621 2.9769 2.6833 2.2999
1.8687 1.3563 0.8391 0.3276 -0.0764 -0.2513
-0.2336 0.0152 0.4632 0.9831 1.5162 2.0707
2.6159 3.1247 3.5689 3.9495 4.3357 4.6771
4.9576 5.1952 5.3270 5.3439 5.2691 5.0427
4.6603 4.2179 3.7241 3.1574 2.5149 1.7892
1.0056 0.2462 -0.4328 -0.9593 -1.3118 -1.5484
-1.6784 -1.7860 -1.8739 -1.9300 -1.9543 -1.9356
-1.9365 -1.9627 -2.0123 -2.0450 -2.0422 -1.9795
-1.8252 -1.5812 -1.2239 -0.8143 -0.3757 0.0769
0.5015 0.7979 0.9279 0.8859 0.6305 0.2724
-0.0783 -0.3327 -0.4935 -0.5310 -0.4440 -0.3860
-0.3804 -0.4758 -0.6637 -0.8536 -1.0051 -1.0921
-1.1500 -1.1959 -1.1865 -1.1061 -0.9789 -0.7835
-0.5450 -0.3420 -0.1756 -0.0896 -0.1129 -0.2308
-0.4636 -0.7414 -1.0406 -1.3633 -1.5728 -1.6466
-1.6270 -1.5372 -1.4428 -1.3848 -1.3988 -1.4783
-1.6307 -1.8243 -2.0095 -2.1357 -2.1937 -2.2900
-2.3920 -2.4892 -2.5902 -2.5818 -2.5033 -2.4191
-2.2573 -1.9739 -1.5578 -0.9808 -0.2729 0.5099
1.2225 1.7387 2.0623 2.1306 1.9725 1.7256
1.4675 1.2281 1.0327 0.8952 0.7530 0.5950
0.4005 0.1489 -0.0998 -0.3776 -0.6301 -0.7461
-0.6881 -0.3739 0.1330 0.7418 1.4142 2.0398
2.5944 3.0910 3.5941 4.1375 4.6537 5.0857
5.3934 5.5627 5.5814 5.5262 5.4177 5.2372
4.9997 4.6387 4.1917 3.7194 3.2818 2.9451
2.7122 2.5701 2.4382 2.3297 2.2895 2.2914
2.4233 2.6655 2.9245 3.2238 3.4875 3.7082
3.9130 4.0533 4.0664 3.8756 3.5099 2.9601
2.2605 1.5498 0.9045 0.2761 -0.3290 -0.8321
-1.2660 -1.6336 -1.9450 -2.2816 -2.6454 -2.9840
-3.2589 -3.4235 -3.5348 -3.5918 -3.6208 -3.7134
-3.8191 -3.9678 -4.0865 -4.0837 -3.9846 -3.8107
-3.6723 -3.5853 -3.5133 -3.4207 -3.2243 -2.9297
-2.5762 -2.2218 -1.9917 -1.9805 -2.1320 -2.3752
-2.6464 -2.8381 -2.9671 -3.0887 -3.2776 -3.5675
-3.8696 -4.1099 -4.2362 -4.2044 -4.0669 -3.8864
-3.6302 -3.3281 -2.9587 -2.4752 -1.9272 -1.2904
-0.6600 -0.1233 0.4042 0.9092 1.4123 1.9622
2.4644 2.8796 3.2172 3.4641 3.6792 3.8625
4.0271 4.1169 4.0196 3.6857 3.0910 2.2961
1.3908 0.5276 -0.2364 -0.9135 -1.4643 -1.9123
-2.2751 -2.5145 -2.6099 -2.5089 -2.2274 -1.8487
-1.3502 -0.8237 -0.2925 0.2882 0.8231 1.3057
1.6957 1.9444 2.0697 2.1034 2.0370 1.9098
1.7602 1.5675 1.4291 1.3637 1.3590 1.4422
1.5769 1.7349 1.9379 2.2306 2.5878 2.9787
3.4127 3.8438 4.1645 4.3376 4.4170 4.4750
4.5555 4.6097 4.5863 4.4376 4.1477 3.7231
3.1686 2.5429 1.8733 1.1589 0.3939 -0.4403
-1.2642 -1.9862 -2.5594 -2.9026 -3.0569 -3.0869
-3.0747 -3.0887 -3.1140 -3.2028 -3.3141 -3.4310
-3.5965 -3.7742 -4.0061 -4.3120 -4.6561 -5.0283
-5.4117 -5.7671 -6.0570 -6.2543 -6.3198 -6.2815
-6.1262 -5.8120 -5.4033 -4.8993 -4.3082 -3.6545
-2.9354 -2.2256 -1.5083 -0.7218 0.1030 0.9176
1.6695 2.2904 2.7590 3.1040 3.2649 3.2901
3.2630 3.1265 2.9769 2.8291 2.5831 2.2549
1.7836 1.1748 0.5005 -0.1663 -0.6704 -0.9799
-1.0959 -1.0164 -0.8340 -0.6049 -0.3393 -0.0494
0.1601 0.2611 0.2601 0.1601 0.0722 0.0376
0.1432 0.4247 0.7567 1.0289 1.1084 0.9727
0.6754 0.2040 -0.3281 -0.8415 -1.3390 -1.7804
-2.1339 -2.3602 -2.4472 -2.3995 -2.2826 -2.2144
-2.2527 -2.4061 -2.6109 -2.7858 -2.9139 -2.9793
-2.9934 -2.9560 -2.8624 -2.7109 -2.4762 -2.2116
-1.9067 -1.6084 -1.3372 -1.0706 -0.8612 -0.6676
-0.4889 -0.2458 0.0937 0.5098 0.9877 1.4553
1.9061 2.2324 2.4569 2.6374 2.7402 2.7776
2.6897 2.4382 1.9921 1.3917 0.7558 0.2068
-0.1167 -0.1654 0.0263 0.4098 0.9119 1.4104
1.8696 2.3194 2.7449 3.1564 3.5641 3.9466
4.3160 4.6536 4.9342 5.1857 5.4448 5.6655
5.8544 6.0227 6.1368 6.2631 6.3706 6.4417
6.4810 6.3949 6.1658 5.7683 5.2063 4.5386
3.7801 2.9862 2.1613 1.2542 0.2395 -0.8163
-1.8150 -2.6810 -3.3562 -3.8051 -3.9978 -3.9678
-3.7752 -3.4591 -3.1327 -2.9494 -2.9607 -3.2552
-3.8163 -4.4878 -5.1387 -5.6259 -5.9018 -5.9392
-5.7709 -5.4454 -5.0134 -4.4775 -3.9230 -3.4198
-3.0168 -2.8765 -2.8746 -3.0158 -3.3469 -3.6452
-3.8163 -3.8425 -3.7331 -3.5667 -3.3862 -3.1580
-2.9317 -2.6960 -2.4024 -2.1405 -1.9422 -1.8356
-1.8300 -1.8974 -2.0554 -2.2106 -2.3219 -2.4229
-2.4435 -2.3631 -2.1985 -1.9413 -1.6654 -1.4485
-1.3288 -1.3391 -1.4952 -1.7515 -2.0676 -2.4566
-2.8466 -3.1945 -3.4591 -3.6003 -3.6443 -3.5227
-3.2066 -2.7633 -2.2191 -1.6159 -1.0632 -0.5189
0.0235 0.5191 1.0690 1.6619 2.2979 2.9272
3.4547 3.8830 4.1299 4.2515 4.3169 4.3225
4.3749 4.5292 4.7162 4.9463 5.2474 5.4896
5.6701 5.7515 5.6561 5.4073 4.9613 4.4441
3.9821 3.6043 3.3902 3.2807 3.1592 2.9478
2.5803 2.0828 1.5151 0.9259 0.4808 0.2685
0.1974 0.1666 0.0946 -0.0336 -0.1953 -0.2907
-0.2645 -0.0925 0.2358 0.6529 1.1326 1.6002
2.0519 2.4484 2.7280 2.8412 2.7439 2.4662
2.0173 1.4964 0.9100 0.2853 -0.3263 -0.9042
-1.3681 -1.7562 -2.0367 -2.2686 -2.5417 -2.7886
-3.0523 -3.3002 -3.4358 -3.4666 -3.4395 -3.4208
-3.4460 -3.5424 -3.6742 -3.7790 -3.8566 -3.9024
-3.9641 -4.0614 -4.1540 -4.2466 -4.2980 -4.2756
-4.2428 -4.2185 -4.1530 -4.0081 -3.7023 -3.2450
-2.7054 -2.1873 -1.8123 -1.5027 -1.1586 -0.7527
-0.2552 0.3199 0.8904 1.3795 1.7695 2.1379
2.5391 2.8664 3.0974 3.2106 3.1040 2.7682
2.2530 1.5908 0.8848 0.2498 -0.3085 -0.7219
-0.9566 -1.0632 -1.0258 -0.8949 -0.7078 -0.4909
-0.3412 -0.2038 -0.0635 0.0338 0.1142 0.0815
-0.0859 -0.3375 -0.6564 -0.9435 -1.1268 -1.1876
-1.1137 -0.9070 -0.6489 -0.3562 0.0225 0.4499
0.9297 1.3898 1.8087 2.1847 2.4680 2.6700
2.7982 2.8889 2.9384 2.9450 2.8290 2.5765
2.2165 1.7208 1.2345 0.8212 0.5079 0.3265
0.2526 0.2460 0.2778 0.3929 0.6323 1.0559
1.5890 2.1426 2.6644 3.1077 3.5379 3.9840
4.4609 4.8873 5.1239 5.1127 4.8135 4.2813
3.6482 2.9899 2.4241 1.9789 1.5403 1.1279
0.7679 0.4499 0.2610 0.2077 0.2133 0.2741
0.3049 0.2993 0.3265 0.3573 0.4546 0.5911
0.6706 0.6846 0.5874 0.3639 0.0824 -0.2178
-0.5517 -0.8818 -1.2409 -1.6589 -2.0779 -2.4548
-2.7091 -2.8139 -2.7943 -2.6306 -2.3369 -1.9937
-1.6346 -1.3204 -1.1418 -1.0342 -1.0174 -1.0763
-1.1455 -1.2540 -1.3522 -1.4597 -1.6328 -1.8778
-2.2640 -2.8326 -3.5518 -4.3841 -5.1977 -5.7887
-6.1319 -6.1852 -5.9898 -5.6587 -5.2463 -4.8937
-4.5533 -4.1727 -3.7566 -3.3002 -2.8232 -2.3126
-1.7974 -1.2596 -0.7518 -0.2936 0.1282 0.4779
0.7894 1.0278 1.2354 1.4505 1.6385 1.8517
2.0827 2.2931 2.4596 2.5662 2.5606 2.4231
2.1884 1.8433 1.4973 1.1475 0.7239 0.2507
-0.3385 -0.9838 -1.5954 -2.0929 -2.3304 -2.3239
-2.0985 -1.7244 -1.2783 -0.7612 -0.2749 0.1338
0.3872 0.4115 0.1787 -0.3048 -0.9089 -1.5028
-1.9741 -2.3211 -2.5829 -2.8438 -3.1665 -3.4629
-3.6649 -3.7360 -3.6752 -3.6079 -3.6584 -3.8080
-3.9595 -3.9249 -3.5527 -2.8784 -2.0517 -1.2045
-0.4339 0.2881 1.0577 1.8583 2.7027 3.5416
4.2159 4.6675 4.9612 5.1828 5.4232 5.7121
5.9721 6.1479 6.1143 5.8655 5.4400 4.8452
4.1233 3.2461 2.2510 1.1513 -0.0074 -1.1231
-2.0536 -2.6923 -3.0253 -3.0393 -2.7316 -2.0892
-1.1465 0.0702 1.4636 2.9094 4.3056 5.5887
6.7193 7.6021 8.2530 8.5644 8.5336 8.2605
7.6583 6.8493 5.8861 4.7760 3.6398 2.4287
1.2635 0.2292 -0.6967 -1.3981 -1.9012 -2.2201
-2.3641 -2.3678 -2.2220 -1.9320 -1.5122 -0.9997
-0.3441 0.3713 1.0418 1.6151 2.0518 2.3988
2.6840 3.0020 3.3349 3.6080 3.7585 3.6912
3.3742 2.8355 2.1397 1.3579 0.6584 0.0683
-0.4358 -0.7902 -1.0586 -1.2222 -1.2924 -1.2840
-1.1325 -0.8921 -0.6284 -0.3722 -0.1851 -0.2225
-0.4900 -0.9501 -1.6421 -2.4717 -3.4022 -4.3467
-5.1771 -5.8542 -6.2610 -6.4237 -6.3817 -6.1301
-5.7691 -5.3053 -4.7769 -4.1774 -3.5200 -2.8644
-2.1752 -1.4869 -0.8557 -0.3030 0.1478 0.4564
0.6266 0.6780 0.5480 0.2806 -0.0944 -0.6443
-1.3307 -2.1359 -3.0468 -3.9446 -4.7329 -5.3548
-5.7841 -5.9870 -5.8926 -5.4904 -4.8171 -3.8623
-2.7354 -1.6253 -0.6078 0.2572 0.9417 1.3897
1.5627 1.4655 1.1288 0.5826 -0.1403 -0.8781
-1.5655 -2.1977 -2.7747 -3.3320 -3.8473 -4.3093
-4.7105 -5.0098 -5.1753 -5.1725 -4.9752 -4.6347
-4.1709 -3.6126 -3.0122 -2.3660 -1.6945 -0.9408
-0.1066 0.7145 1.5262 2.2734 2.9103 3.4247
3.7856 3.9820 3.9811 3.7922 3.4218 2.9299
2.4380 2.0789 1.9789 2.1874 2.7186 3.5256
4.4908 5.5522 6.6024 7.5077 8.2362 8.6785
8.7412 8.4101 7.7452 6.9129 5.9328 4.8658
3.8436 2.8392 1.8236 0.8613 0.0150 -0.6855
-1.1372 -1.3467 -1.3944 -1.3074 -1.2363 -1.1877
-1.0979 -0.9801 -0.7958 -0.6219 -0.4573 -0.2890
-0.1075 0.1777 0.5817 1.0540 1.4860 1.8320
2.0350 2.0976 2.1229 2.1640 2.3333 2.6774
3.1310 3.6528 4.1391 4.5085 4.7208 4.7208
4.4964 4.0016 3.2152 2.2154 1.1400 0.0973
-0.7874 -1.4299 -1.8292 -1.9854 -1.9461 -1.7619
-1.4439 -1.0165 -0.5274 -0.0122 0.4620 0.8304
1.0951 1.2990 1.4645 1.5917 1.6412 1.5243
1.1830 0.6406 -0.1160 -1.0801 -2.0873 -3.0805
-3.9811 -4.6834 -5.1454 -5.2183 -4.9621 -4.4599
-3.7548 -3.0478 -2.4988 -2.2005 -2.1921 -2.5035
-3.0609 -3.8015 -4.6871 -5.6223 -6.5276 -7.3141
-7.9154 -8.2156 -8.1894 -7.8677 -7.2318 -6.4369
-5.6036 -4.7835 -4.0718 -3.4368 -2.8533 -2.2716
-1.6609 -1.0250 -0.3657 0.2338 0.7556 1.1063
1.2877 1.3803 1.3700 1.3541 1.3766 1.3887
1.4140 1.4448 1.4140 1.2728 0.9969 0.5452
-0.0851 -0.8557 -1.7348 -2.5858 -3.2816 -3.7492
-3.9577 -3.9007 -3.5631 -2.9580 -2.1425 -1.1812
-0.1487 0.8005 1.6160 2.2276 2.6007 2.7840
2.7672 2.6540 2.5315 2.4315 2.4277 2.5044
2.5689 2.6877 2.8383 2.9318 3.0374 3.1076
3.1562 3.1899 3.1730 3.1543 3.1235 3.1216
3.1441 3.1403 3.1188 3.0477 2.9131 2.6194
2.1266 1.4729 0.6668 -0.1197 -0.8548 -1.5440
-2.1594 -2.7925 -3.4013 -4.0129 -4.6479 -5.2183
-5.7056 -6.0076 -6.0946 -5.9749 -5.5690 -4.8901
-3.9652 -2.7831 -1.3158 0.3404 2.0499 3.7379
5.2361 6.4789 7.3982 7.9556 8.1987 8.1005
7.6750 6.9568 6.0712 5.1276 4.2045 3.4087
2.7541 2.3239 2.1135 2.1182 2.4137 2.9196
3.6051 4.3579 5.1238 5.8795 6.5201 7.0980
7.5506 7.8592 8.0566 8.0612 7.9135 7.6142
7.1279 6.4836 5.6148 4.5047 3.2142 1.7544
0.1851 -1.4168 -2.9908 -4.4880 -5.8094 -6.9026
-7.7452 -8.2886 -8.5673 -8.6075 -8.4429 -8.1427
-7.7995 -7.4553 -7.1841 -7.0251 -6.8746 -6.7268
-6.5865 -6.4622 -6.3415 -6.1835 -5.9749 -5.5597
-4.8864 -3.9072 -2.5980 -1.1092 0.4554 1.9825
3.3984 4.6207 5.6232 6.3713 6.7791 6.8296
6.5369 6.0094 5.2716 4.4262 3.5303 2.5652
1.6627 0.8154 0.0682 -0.5266 -1.0231 -1.4795
-1.9032 -2.2941 -2.6868 -3.0141 -3.2526 -3.3742
-3.3265 -3.1638 -2.8645 -2.4212 -1.9696 -1.5468
-1.1503 -0.8567 -0.6173 -0.4078 -0.3096 -0.2862
-0.4041 -0.7239 -1.1877 -1.7563 -2.3577 -2.9842
-3.5949 -4.1644 -4.7190 -5.1950 -5.5597 -5.7561
-5.7767 -5.6570 -5.4176 -5.0949 -4.6900 -4.2430
-3.7146 -3.1339 -2.5531 -1.8929 -1.2485 -0.5995
0.0560 0.6312 1.2213 1.8254 2.5324 3.3918
4.3757 5.4492 6.5387 7.6507 8.6391 9.4546
10.0588 10.3833 10.4441 10.2710 9.9222 9.3901
8.6579 7.7096 6.5097 5.0565 3.4564 1.7609
-0.0206 -1.8639 -3.7230 -5.5298 -7.2141 -8.6608
-9.7868 -10.4788 -10.7341 -10.6668 -10.3413 -9.8681
-9.3117 -8.7309 -8.1380 -7.4320 -6.6034 -5.6186
-4.4796 -3.2031 -1.7835 -0.2629 1.3952 3.1646
5.0462 7.0839 9.1077 11.0332 12.8082 14.2587
15.3463 15.9859 16.0897 15.7185 14.9404 13.7901
12.2901 10.5011 8.4278 6.1450 3.7425 1.2634
-1.1737 -3.5089 -5.6673 -7.5620 -9.1349 -10.3413
-11.1521 -11.5206 -11.4635 -10.9623 -10.0982 -9.0386
-7.9173 -6.9017 -6.0545 -5.3923 -4.8630 -4.4403
-4.1111 -3.8315 -3.5996 -3.3630 -3.0983 -2.8374
-2.5821 -2.3119 -2.0276 -1.7143 -1.3776 -1.0400
-0.6800 -0.3564 -0.0207 0.3674 0.7237 1.1315
1.5673 2.0526 2.6521 3.3133 4.0951 4.9049
5.6606 6.3404 6.8847 7.3205 7.6759 7.9967
8.2566 8.3595 8.2333 7.8180 7.1756 6.4162
5.5549 4.6543 3.7509 2.8485 2.0610 1.5074
1.2325 1.2755 1.6383 2.2537 3.0495 3.8809
4.6422 5.2828 5.7073 5.9177 5.9205 5.7167
5.3463 4.8161 4.1390 3.3039 2.2789 1.1305
-0.0693 -1.2570 -2.3652 -3.3864 -4.2804 -5.0650
-5.7749 -6.3556 -6.7989 -7.1514 -7.4011 -7.5844
-7.8070 -8.1493 -8.6720 -9.3192 -10.0767 -10.8884
-11.6964 -12.5512 -13.4218 -14.3215 -15.1912 -15.9562
-16.5556 -16.9456 -17.1972 -17.3375 -17.3692 -17.2664
-17.0017 -16.4986 -15.7458 -14.7835 -13.6397 -12.3838
-11.0194 -9.6624 -8.3157 -6.9840 -5.8515 -4.8266
-4.0607 -3.6810 -3.5650 -3.7474 -4.0167 -4.2739
-4.4375 -4.3730 -4.0812 -3.4247 -2.3399 -0.8315
1.0922 3.3703 5.8672 8.4390 11.0266 13.5647
16.0467 18.4024 20.5430 22.4228 23.9593 25.1395
25.9671 26.4609 26.6498 26.5927 26.3047 25.7969
24.9786 23.8358 22.5425 21.0247 19.3292 17.4682
15.3967 13.1906 10.8312 8.4109 6.0122 3.7060
1.5616 -0.3929 -2.1548 -3.7240 -5.0192 -6.0133
-6.6596 -6.9438 -6.9214 -6.6352 -6.1546 -5.6009
-4.8762 -3.9204 -2.8506 -1.6545 -0.4649 0.7097
1.7749 2.5875 3.1758 3.5115 3.6639 3.5975
3.3029 2.6605 1.7692 0.7106 -0.5033 -1.6124
-2.6654 -3.5108 -4.0887 -4.3908 -4.3525 -4.1308
-3.6137 -2.9113 -2.1361 -1.3103 -0.6669 -0.2264
-0.1039 -0.3555 -0.8886 -1.6601 -2.5167 -3.4594
-4.4497 -5.4279 -6.3996 -7.2693 -7.9819 -8.4579
-8.6487 -8.5327 -8.0362 -7.2581 -6.3435 -5.3251
-4.2393 -3.1003 -1.9472 -0.8072 0.2655 1.1576
1.9048 2.5389 3.0598 3.4787 3.7948 4.0118
4.0623 3.8930 3.4647 2.8447 2.1078 1.2979
0.4927 -0.3527 -1.2944 -2.3718 -3.6053 -5.0071
-6.5343 -8.0670 -9.5858 -11.0662 -12.4904 -13.8698
-15.1912 -16.4378 -17.4628 -18.1894 -18.5598 -18.4242
-17.8126 -16.7119 -15.0968 -13.1133 -10.8585 -8.4476
-6.0573 -3.7353 -1.5460 0.3992 2.1021 3.5199
4.6720 5.6297 6.3741 6.9099 7.2260 7.3298
7.2279 6.9773 6.6209 6.1786 5.7101 5.2228
4.8114 4.5645 4.5701 4.9311 5.6268 6.5742
7.6403 8.7812 9.9408 11.0200 12.0357 12.9577
13.7059 14.2576 14.5419 14.5195 14.2333 13.7414
13.1747 12.5668 11.9234 11.2856 10.6188 9.9081
9.1721 8.4333 7.7114 7.0175 6.3292 5.6521
4.9142 4.1034 3.2524 2.3144 1.3792 0.4927
-0.3134 -1.0214 -1.6049 -2.0080 -2.2586 -2.3222
-2.2418 -2.0772 -1.7817 -1.4142 -0.9914 -0.5164
-0.0834 0.3075 0.5694 0.6919 0.7835 0.7760
0.7386 0.7611 0.7611 0.7386 0.6694 0.6535
0.8443 1.2390 1.9085 2.8428 3.8659 4.8590
5.7222 6.3245 6.6696 6.6808 6.2768 5.5184
4.3615 2.9419 1.4082 -0.1554 -1.6236 -2.9909
-4.2683 -5.5383 -6.8036 -7.9969 -9.1042 -10.0674
-10.8623 -11.5272 -12.1080 -12.6111 -13.0469 -13.4406
-13.7464 -13.9306 -13.9933 -13.9129 -13.6632 -13.2545
-12.7981 -12.3558 -11.9649 -11.6600 -11.3495 -10.8866
-10.2348 -9.3557 -8.2055 -6.9158 -5.5841 -4.3029
-3.1807 -2.1997 -1.4637 -0.9728 -0.6464 -0.5968
-0.7408 -0.9765 -1.2842 -1.6031 -1.8752 -2.0744
-2.2353 -2.3054 -2.3110 -2.2596 -2.1305 -1.9734
-1.7424 -1.4927 -1.2627 -1.0326 -0.9204 -0.8652
-0.8867 -1.0233 -1.1925 -1.4534 -1.7415 -1.9426
-1.9949 -1.8762 -1.6031 -1.1748 -0.6258 -0.1199
0.2327 0.4048 0.4842 0.7003 1.1211 1.6485
2.3481 3.3225 4.4466 5.7063 7.0661 8.4080
9.6528 10.7208 11.5531 12.0029 12.0655 11.8261
11.2519 10.3224 9.1496 7.8348 6.4189 5.0068
3.6844 2.4696 1.4578 0.6844 0.1588 -0.0769
-0.0750 0.2009 0.7994 1.7393 3.1205 4.9591
7.1231 9.5901 12.2096 14.8355 17.4765 19.8416
21.8186 23.3092 24.1294 24.2977 23.7815 22.6471
21.0358 19.0841 16.9219 14.6719 12.4293 10.2756
8.2556 6.3525 4.5354 2.7324 0.8957 -0.9625
-2.8282 -4.6284 -6.2061 -7.5537 -8.6319 -9.3651
-9.8093 -9.8841 -9.6560 -9.2108 -8.5225 -7.7903
-7.0524 -6.3800 -5.9704 -5.7908 -5.8750 -6.2285
-6.8635 -7.8099 -9.0387 -10.5612 -12.2745 -14.1355
-15.9722 -17.6480 -19.1050 -20.1553 -20.8351 -21.0091
-20.7238 -20.0748 -19.0751 -17.9295 -16.6287 -15.2661
-13.8755 -12.4765 -11.0793 -9.7467 -8.5711 -7.4910
-6.6082 -5.8591 -5.1764 -4.5919 -4.0654 -3.6175
-3.2621 -2.9666 -2.7384 -2.5046 -2.2231 -1.9183
-1.4769 -0.8905 -0.1536 0.7068 1.6672 2.8615
4.2698 5.8372 7.5757 9.3656 11.0321 12.5593
13.8807 14.9431 15.8016 16.3243 16.4749 16.2233
15.5014 14.3979 12.8922 11.0536 9.0168 6.8070
4.5092 2.2508 0.1186 -1.7378 -3.1995 -4.2600
-4.8903 -5.1952 -5.2840 -5.1269 -4.8164 -4.4115
-3.9850 -3.6914 -3.5371 -3.5923 -3.8569 -4.2946
-4.8314 -5.3420 -5.7881 -6.0368 -5.9620 -5.4448
-4.4620 -3.0882 -1.4778 0.2504 2.0338 3.8284
5.6240 7.2680 8.6801 9.7219 10.2774 10.3326
9.8837 9.1075 8.1003 6.9613 5.7904 4.6252
3.5394 2.5678 1.8271 1.3969 1.2408 1.3530
1.6653 2.0899 2.5622 3.0803 3.6105 4.0884
4.4578 4.5971 4.4690 4.0005 3.2121 2.1806
0.8714 -0.6118 -2.1483 -3.6577 -5.0334 -6.2192
-7.2451 -8.1728 -9.1248 -10.2545 -11.6404 -13.3060
-15.1867 -17.1449 -19.0415 -20.7136 -21.9817 -22.7906
-22.9833 -22.4876 -21.4636 -19.9290 -17.9735 -15.6739
-13.0919 -10.4107 -7.7183 -5.1718 -2.9002 -1.0252
0.3533 1.3090 1.9066 2.2442 2.5369 2.9044
3.3982 4.1174 5.0282 6.1626 7.4943 8.9495
10.5178 12.0898 13.5861 14.9309 16.0914 17.0977
17.9889 18.7333 19.2860 19.5713 19.5292 19.0756
18.1451 16.7704 14.9664 12.8398 10.4822 8.0330
5.6398 3.3645 1.3137 -0.4650 -1.9342 -3.0667
-3.9570 -4.6640 -5.2317 -5.7872 -6.3249 -6.8420
-7.3246 -7.6940 -8.0316 -8.2916 -8.4057 -8.4010
-8.2673 -8.0606 -7.8324 -7.6566 -7.4948 -7.3199
-7.1095 -6.7438 -6.3838 -6.0022 -5.5945 -5.2887
-5.0484 -4.9240 -4.8118 -4.7407 -4.7089 -4.6060
-4.4255 -4.0870 -3.5502 -2.7506 -1.7294 -0.4360
1.1388 2.8754 4.7458 6.5853 8.3191 9.8369
11.0611 12.0589 12.8333 13.5066 14.1088 14.7335
15.4190 16.1447 16.9827 17.8720 18.8530 19.8574
20.8048 21.6492 22.2655 22.5592 22.4797 22.0916
21.4257 20.5307 19.4216 18.0880 16.5282 14.7345
12.7594 10.6113 8.3462 5.9709 3.4674 0.8639
-1.8818 -4.7173 -7.6080 -10.5295 -13.4762 -16.4277
-19.2276 -21.8012 -24.0952 -25.9319 -27.2431 -28.1016
-28.4775 -28.4223 -27.9080 -26.9541 -25.6177 -23.9709
-22.1529 -20.1516 -18.1381 -16.0957 -14.0626 -12.1614
-10.3958 -8.8817 -7.6463 -6.8495 -6.5157 -6.6634
-7.2760 -8.2598 -9.5157 -10.7455 -11.8322 -12.6617
-13.0891 -13.0816 -12.7047 -11.8631 -10.5987 -9.1613
-7.2601 -5.0100 -2.7245 -0.4267 1.6559 3.4982
5.0385 6.2309 7.0706 7.5747 7.7617 7.5130
6.8920 5.9204 4.5344 2.8399 1.0181 -0.7886
-2.3766 -3.5689 -4.2282 -4.2226 -3.5390 -2.1054
0.0081 2.5705 5.4107 8.3500 11.1499 13.5412
15.4461 16.8237 17.7074 18.2133 18.3742 18.2956
18.0067 17.5802 17.1248 16.7068 16.3981 16.2233
16.1372 16.0157 15.7800 15.4022 14.8794 14.1743
13.3261 12.2431 10.8852 9.3113 7.4943 5.6791
3.9630 2.4321 1.1958 0.2307 -0.4333 -0.8953
-1.0533 -0.9701 -0.7905 -0.4875 -0.1106 0.2662
0.4290 0.4776 0.4570 0.3972 0.4131 0.3149
0.2251 0.1550 0.1222 0.2775 0.6282 1.1958
1.9131 2.8006 3.6329 4.3605 5.0301 5.5051
5.8437 6.0962 6.2757 6.3412 6.3318 6.2299
5.9606 5.4986 4.8449 4.0696 3.0821 1.8504
0.4243 -1.2385 -3.0901 -5.0821 -7.0936 -9.0706
-10.9990 -12.8020 -14.5246 -16.0611 -17.4779 -18.7825
-19.9075 -20.9839 -21.8546 -22.5232 -23.0320 -23.3312
-23.3771 -23.1124 -22.5962 -21.7078 -20.4958 -18.9929
-17.1852 -15.2026 -13.0891 -11.0607 -9.2025 -7.5566
-6.1444 -4.8492 -3.6251 -2.3916 -1.2357 -0.1733
0.7890 1.4913 1.9280 2.0693 1.9655 1.6400
1.0256 0.2569 -0.6269 -1.5246 -2.3252 -2.9751
-3.2688 -3.2286 -2.8741 -2.2195 -1.3750 -0.3949
0.6927 1.8392 2.8791 3.8293 4.6289 5.2246
5.7062 6.0859 6.4525 6.8106 7.1810 7.6457
8.2246 8.9185 9.7415 10.6608 11.5492 12.3563
13.0034 13.4551 13.7394 13.7740 13.6272 13.3494
12.9641 12.6153 12.3142 12.1337 12.1496 12.2899
12.5489 12.8931 13.1362 13.2512 13.1979 12.8538
12.2384 11.3350 10.2016 8.9176 7.5447 6.1887
4.9795 3.9518 2.9792 2.0889 1.3024 0.5150
-0.2332 -0.9074 -1.5209 -2.0240 -2.5066 -3.0219
-3.6625 -4.4097 -5.2542 -6.3081 -7.3667 -8.4310
-9.5392 -10.6361 -11.7743 -12.7992 -13.6577 -14.3329
-14.7238 -14.8463 -14.6163 -14.0047 -13.1237 -11.9407
-10.4407 -8.7630 -6.9394 -4.9858 -3.0537 -0.9991
1.1415 3.2466 5.4013 7.4232 9.3206 11.0143
12.4488 13.5720 14.2313 14.5240 14.4118 14.0012
13.4242 12.7247 12.0243 11.3210 10.6467 10.0548
9.5750 9.1935 8.9176 8.7315 8.5809 8.4154
8.2396 8.0834 7.9001 7.8561 7.9478 8.1245
8.4397 8.7736 9.1673 9.5834 10.0033 10.4775
10.9320 11.2836 11.5062 11.5305 11.3144 10.9048
10.2642 9.3870 8.2583 6.9359 5.4967 3.9583
2.4321 0.9900 -0.2463 -1.3414 -2.4038 -3.4100
-4.3854 -5.2701 -6.0603 -6.7626 -7.3780 -7.8905
-8.3094 -8.6526 -8.8051 -8.7770 -8.6461 -8.3889
-8.1093 -7.9363 -7.8531 -7.9036 -8.0756 -8.3394
-8.6760 -9.0164 -9.3278 -9.6056 -9.7973 -9.8113
-9.6617 -9.3288 -8.8827 -8.4114 -7.9410 -7.6034
-7.4042 -7.3116 -7.3509 -7.4762 -7.6221 -7.6903
-7.6043 -7.4014 -7.0862 -6.6925 -6.2707 -5.8761
-5.5039 -5.1233 -4.7716 -4.3873 -3.9421 -3.4250
-2.8124 -2.1428 -1.3853 -0.4558 0.4616 1.2696
1.9720 2.3872 2.5134 2.3096 1.7008 0.6403
-0.8747 -2.7778 -5.0139 -7.3808 -9.6916 -11.7808
-13.5006 -14.7669 -15.5038 -15.6806 -15.2943 -14.3376
-12.7590 -10.5539 -7.7960 -4.6276 -1.1534 2.5452
6.2626 9.9734 13.5336 16.7254 19.5169 21.8006
23.6186 24.9634 25.8285 26.2137 26.0697 25.4721
24.4463 23.0809 21.4668 19.6553 17.7354 15.7491
13.7132 11.6969 9.7695 7.9917 6.4402 5.1291
4.0387 3.1634 2.4573 1.8326 1.3117 0.8413
0.4008 0.0782 -0.1893 -0.4044 -0.5428 -0.6606
-0.7616 -0.9196 -1.1806 -1.5182 -2.0119 -2.6712
-3.3997 -4.1610 -4.9624 -5.7443 -6.4896 -7.1424
-7.6184 -7.9429 -8.0888 -8.0757 -7.9588 -7.8054
-7.6258 -7.4659 -7.3397 -7.2088 -7.1012 -6.9647
-6.7543 -6.4195 -5.8771 -5.1261 -4.1797 -3.1155
-2.2373 -1.5537 -0.9038 -0.4726 -0.2463 -0.2351
-0.5316 -1.0599 -1.8156 -2.6348 -3.4708 -4.2723
-4.9035 -5.4731 -5.9042 -6.1389 -6.1857 -5.9706
-5.5825 -4.9886 -4.1675 -3.2034 -2.0830 -0.8710
0.3513 1.4744 2.4208 3.0820 3.4327 3.5168
3.2344 2.6490 1.8083 0.6907 -0.6223 -2.0737
-3.6401 -5.2290 -6.7449 -8.1093 -9.2606 -10.1378
-10.6615 -10.8335 -10.5474 -9.7899 -8.7275 -7.3911
-5.8892 -4.3162 -2.7068 -1.1637 0.2914 1.6549
2.8734 3.7983 4.5512 5.1721 5.5593 5.9034
6.1690 6.3822 6.6301 6.9050 7.2136 7.5204
7.9047 8.4200 8.9568 9.4655 9.9574 10.3184
10.5419 10.5868 10.3811 9.9453 9.2018 8.0908
6.6712 4.9608 2.9632 0.8104 -1.4546 -3.7439
-5.8967 -7.8728 -9.5467 -10.8083 -11.7023 -12.2157
-12.3962 -12.3495 -12.0633 -11.6640 -11.1646 -10.5810
-10.0386 -9.5028 -9.0015 -8.4984 -7.9784 -7.4603
-6.9535 -6.4719 -6.0286 -5.6236 -5.2645 -5.0064
-4.7567 -4.5660 -4.4126 -4.2639 -4.1077 -3.8094
-3.4465 -3.0510 -2.6067 -2.1261 -1.6388 -1.0833
-0.4278 0.2521 1.0031 1.7867 2.5639 3.3625
4.1462 4.8934 5.5836 6.2092 6.8405 7.4652
8.0590 8.6594 9.2055 9.6535 10.0145 10.2492
10.4007 10.5531 10.6373 10.6326 10.5513 10.3857
10.2314 10.0986 9.9902 9.9677 9.9471 9.8620
9.7264 9.4683 9.0784 8.6556 8.1993 7.7270
7.2529 6.7114 6.1194 5.4751 4.8120 4.2313
3.7777 3.4850 3.4495 3.6805 4.1593 4.8607
5.6378 6.4327 7.1734 7.7064 7.9767 7.9038
7.4474 6.6609 5.5836 4.3164 2.9426 1.5473
0.2325 -1.0011 -2.1485 -3.2100 -4.2415 -5.2374
-6.1689 -7.0872 -7.9261 -8.6733 -9.4224 -10.1097
-10.7083 -11.2226 -11.6032 -11.8529 -11.9707 -11.9072
-11.6575 -11.2020 -10.5801 -9.8049 -8.8005 -7.6250
-6.2802 -4.7493 -3.0800 -1.3143 0.4597 2.1739
3.7338 5.0374 6.0100 6.6974 7.1163 7.2837
7.2893 7.1369 6.9695 6.8620 6.7740 6.7610
6.8376 6.9255 6.9358 6.9190 6.8021 6.5066
6.0755 5.4180 4.5333 3.4644 2.2580 0.9413
-0.4390 -1.7333 -2.8696 -3.7608 -4.3500 -4.5884
-4.4453 -3.9619 -3.1604 -2.1018 -0.8720 0.4653
1.8512 3.2175 4.4473 5.4900 6.2887 6.7675
6.9283 6.7376 6.2073 5.2693 3.8927 2.1505
0.1006 -2.1167 -4.3593 -6.5130 -8.4863 -10.1874
-11.5612 -12.5889 -13.2043 -13.4091 -13.1790 -12.4926
-11.4489 -10.0873 -8.4592 -6.6851 -4.8325 -2.9696
-1.2480 0.2605 1.4949 2.3693 2.8668 2.9669
2.7836 2.3459 1.6838 0.9235 0.0632 -0.8514
-1.7221 -2.5254 -3.2502 -3.8740 -4.4079 -4.8606
-5.2197 -5.4535 -5.4843 -5.3759 -5.1860 -4.8681
-4.5061 -4.1555 -3.8880 -3.7870 -3.8366 -4.0320
-4.3285 -4.6352 -4.8961 -5.1224 -5.3170 -5.4834
-5.6237 -5.7191 -5.7883 -5.7509 -5.5984 -5.4189
-5.1552 -4.8681 -4.5894 -4.3098 -4.0619 -3.7935
-3.5588 -3.3362 -3.1483 -3.0389 -2.9668 -2.9500
-2.9668 -3.0220 -3.0735 -3.1389 -3.2483 -3.3372
-3.3867 -3.3503 -3.1913 -2.8967 -2.4749 -1.9924
-1.4706 -0.9459 -0.5017 -0.1248 0.1548 0.3587
0.5597 0.7496 0.9918 1.3088 1.7194 2.2281
2.8060 3.3774 3.8581 4.2397 4.4435 4.4501
4.2808 3.9890 3.6196 3.2213 2.9416 2.8444
2.9968 3.4429 4.2116 5.2403 6.3738 7.5642
8.6715 9.6450 10.4586 11.0356 11.4602 11.6837
11.7099 11.6070 11.3695 11.0543 10.6363 10.1285
9.5702 8.9446 8.2366 7.4847 6.7039 5.8659
5.0420 4.2069 3.3587 2.5797 1.8624 1.1966
0.5756 0.0211 -0.5363 -1.1021 -1.6473 -2.2168
-2.7639 -3.2736 -3.6888 -3.9292 -3.9862 -3.9030
-3.5860 -2.9641 -2.1682 -1.2405 -0.2829 0.6196
1.4350 2.0953 2.5638 2.8369 2.9229 2.8266
2.6414 2.3740 2.0429 1.7175 1.3649 1.0441
0.7402 0.3923 0.0715 -0.2315 -0.4765 -0.5747
-0.5915 -0.5335 -0.4540 -0.4288 -0.4269 -0.4662
-0.5522 -0.7262 -1.0245 -1.4650 -2.0971 -2.9426
-4.0087 -5.2908 -6.7553 -8.3582 -9.9751 -11.5472
-13.0818 -14.4752 -15.7405 -16.7384 -17.3360 -17.5782
-17.4080 -16.8880 -16.0295 -14.8830 -13.6092 -12.2168
-10.8243 -9.5440 -8.3376 -7.2977 -6.5580 -6.1072
-5.9351 -6.0006 -6.1736 -6.4514 -6.6319 -6.6580
-6.5991 -6.2802 -5.7921 -5.0710 -4.0479 -2.7340
-1.1274 0.6280 2.5311 4.4996 6.4663 8.3750
10.1911 11.9063 13.3951 14.6454 15.6012 16.1436
16.2436 15.8499 14.8942 13.3801 11.3975 9.0053
6.3167 3.5074 0.6570 -2.0691 -4.5455 -6.7983
-8.8127 -10.4998 -11.8240 -12.8041 -13.3970 -13.6859
-13.7205 -13.5803 -13.3801 -13.1248 -12.8742 -12.6058
-12.3739 -12.1532 -11.8754 -11.6557 -11.4378 -11.2348
-11.0777 -10.9038 -10.7308 -10.4549 -10.0977 -9.6366
-9.0297 -8.3526 -7.5923 -6.7637 -5.8052 -4.7858
-3.8086 -2.8247 -1.8428 -1.0404 -0.4195 0.0163
0.2193 0.3633 0.3521 0.2436 0.1080 -0.0257
-0.0211 0.1033 0.4708 1.0815 1.9662 3.1819
4.6436 6.3036 8.0683 9.9143 11.7678 13.5138
15.1551 16.6308 17.9195 19.1072 20.1499 21.0196
21.7967 22.5047 23.1340 23.6634 24.0356 24.2637
24.3526 24.2684 24.0543 23.7475 23.3622 22.9788
22.5879 22.2372 22.0109 21.8846 21.8996 22.0792
22.4140 22.8787 23.4043 23.9729 24.5116 24.9633
25.2896 25.3944 25.2990 24.9184 24.2114 23.1911
21.8706 20.3416 18.5339 16.5419 14.3358 11.8417
9.1213 6.0585 2.8247 -0.5139 -3.8974 -7.0911
-10.1510 -12.9303 -15.3347 -17.3725 -18.9660 -20.1266
-20.8382 -21.1151 -21.0113 -20.6035 -19.9255 -19.0651
-18.0860 -17.0601 -16.1156 -15.2505 -14.5791 -14.1068
-13.8029 -13.7888 -13.9815 -14.3733 -14.9990 -15.8144
-16.8011 -17.8709 -18.9342 -19.9311 -20.7737 -21.3208
-21.6294 -21.6341 -21.2666 -20.6391 -19.6842 -18.4676
-16.9862 -15.3403 -13.6373 -11.9147 -10.3212 -8.8660
-7.5774 -6.4018 -5.4077 -4.5661 -3.7740 -3.1343
-2.6200 -2.1412 -1.7035 -1.2649 -0.7533 -0.1604
0.5335 1.2956 2.1485 3.0931 4.0469 5.0158
5.9454 6.8170 7.6193 8.2749 8.8641 9.3438
9.7431 10.1303 10.4240 10.7251 11.0337 11.2918
11.5574 11.8576 12.2522 12.7301 13.2735 13.8991
14.5752 15.2776 15.9715 16.6251 17.1965 17.6763
18.0709 18.3281 18.4151 18.3244 18.0728 17.6379
16.9983 16.2081 15.3112 14.2937 13.2108 12.0961
10.9102 9.7132 8.4647 7.1396 5.7695 4.3892
3.0248 1.6632 0.4138 -0.6711 -1.5903 -2.3329
-2.8669 -3.2101 -3.4289 -3.4682 -3.3924 -3.2148
-2.9323 -2.6003 -2.1842 -1.7587 -1.3407 -0.9554
-0.6664 -0.5177 -0.5607 -0.8048 -1.2574 -1.8428
-2.5152 -3.2596 -4.0218 -4.7962 -5.5658 -6.3009
-7.0153 -7.6859 -8.2797 -8.8848 -9.4983 -10.1211
-10.8477 -11.5603 -12.3309 -13.1978 -14.0096 -14.8017
-15.5274 -16.1596 -16.7216 -17.2341 -17.6362 -17.9495
-18.2104 -18.3872 -18.5471 -18.6341 -18.6920 -18.6668
-18.4788 -18.1543 -17.6213 -16.9077 -15.9473 -14.8279
-13.6355 -12.3309 -10.9889 -9.5628 -8.0880 -6.5852
-5.0561 -3.4776 -1.7521 0.0799 2.0279 4.0048
5.9921 8.0458 10.0283 11.9558 13.7494 15.2934
16.6092 17.6295 18.2823 18.5656 18.5638 18.2168
17.4948 16.5092 15.3402 13.9926 12.5431 11.1104
9.7328 8.4900 7.4164 6.5354 5.8649 5.4291
5.2449 5.3356 5.6863 6.2231 6.9030 7.6595
8.5367 9.5103 10.5296 11.6004 12.5758 13.4081
14.0721 14.5135 14.7211 14.6220 14.2282 13.5774
12.6889 11.6153 10.3846 9.0857 7.6941 6.2119
4.7240 3.1594 1.5182 -0.0716 -1.5922 -3.0465
-4.3585 -5.5490 -6.6160 -7.5989 -8.5537 -9.4945
-10.4877 -11.4322 -12.3945 -13.4008 -14.3977 -15.4647
-16.5439 -17.6063 -18.6041 -19.5319 -20.4128 -21.2535
-22.1036 -22.9247 -23.7916 -24.7174 -25.6311 -26.5401
-27.3425 -27.9859 -28.5031 -28.8855 -29.0997 -29.1053
-28.8706 -28.4189 -27.7362 -26.7730 -25.6919 -24.4294
-22.9369 -21.3592 -19.6534 -17.8654 -15.9669 -14.0199
-12.0607 -10.0491 -8.0600 -6.0549 -4.0349 -2.0243
-0.1034 1.6650 3.2922 4.6557 5.7190 6.4662
6.8655 6.9806 6.8169 6.4802 6.0435 5.5189
4.9961 4.4930 3.9599 3.4194 2.8779 2.2775
1.6491 0.9505 0.2080 -0.5505 -1.3239 -2.0655
-2.7687 -3.3925 -3.9283 -4.3426 -4.6372 -4.7728
-4.7363 -4.5409 -4.2136 -3.8124 -3.3065 -2.7229
-2.0748 -1.3435 -0.5262 0.3585 1.3292 2.3477
3.3913 4.5005 5.5974 6.6860 7.7259 8.6442
9.4223 10.0077 10.3640 10.5015 10.4763 10.3182
10.0807 9.7777 9.4130 9.0249 8.5591 8.0410
7.4753 6.7954 6.0416 5.1560 4.1432 3.0921
1.9960 0.9496 -0.0034 -0.8123 -1.3790 -1.7148
-1.8176 -1.7419 -1.5642 -1.2874 -0.9517 -0.5851
-0.1848 0.1883 0.4885 0.7139 0.8785 0.9561
0.9337 0.8635 0.7737 0.7008 0.6531 0.6643
0.7934 1.0318 1.3994 1.9212 2.5506 3.2716
4.0235 4.7333 5.4263 6.0369 6.6121 7.1657
7.6744 8.2000 8.6901 9.1801 9.6972 10.2079
10.7026 11.1963 11.6639 12.0520 12.3541 12.5654
12.6721 12.6318 12.5065 12.3083 12.0417 11.7696
11.4788 11.1982 10.9504 10.7297 10.5548 10.4089
10.2303 9.9974 9.6888 9.2717 8.7125 8.0289
7.2227 6.3109 5.3589 4.3237 3.2174 1.9932
0.6484 -0.7777 -2.3526 -3.9779 -5.5874 -7.1548
-8.5416 -9.6405 -10.4054 -10.8038 -10.7861 -10.3447
-9.5021 -8.3284 -6.9331 -5.3564 -3.6955 -2.0655
-0.5009 0.8738 2.0044 2.8470 3.3286 3.4708
3.3389 2.9901 2.5085 1.9661 1.4087 0.9112
0.4137 -0.0661 -0.5365 -1.0359 -1.4604 -1.8953
-2.3479 -2.7716 -3.1653 -3.5010 -3.7890 -4.0210
-4.2548 -4.4783 -4.7093 -5.0188 -5.3826 -5.7885
-6.2308 -6.7349 -7.2623 -7.7617 -8.2405 -8.6847
-9.0681 -9.4048 -9.6611 -9.8462 -10.0220 -10.0622
-10.1324 -10.2820 -10.4008 -10.6411 -10.8946 -11.1891
-11.5314 -11.8260 -12.1140 -12.3011 -12.4058 -12.4890
-12.5106 -12.5031 -12.4825 -12.4516 -12.4432 -12.4526
-12.4844 -12.4386 -12.3254 -12.1337 -11.8045 -11.3500
-10.7029 -9.9201 -8.9999 -7.9684 -6.8630 -5.7043
-4.5447 -3.3766 -2.2881 -1.2407 -0.2260 0.6559
1.4452 2.0923 2.6282 3.0602 3.3819 3.6372
3.7513 3.8215 3.8308 3.7784 3.7261 3.6167
3.5166 3.4165 3.3408 3.3398 3.4137 3.6101
3.9290 4.3517 4.8436 5.4029 5.9752 6.5737
7.2208 7.8212 8.3739 8.8499 9.2016 9.4307
9.5120 9.4326 9.2502 8.9696 8.5890 8.1841
7.7212 7.2470 6.8374 6.4213 6.0612 5.7666
5.4599 5.1934 4.8960 4.5490 4.2760 4.0571
3.8925 3.8897 4.0393 4.2909 4.6369 5.0578
5.4926 5.9172 6.3175 6.6775 7.0226 7.3125
7.5641 7.8137 8.0644 8.2972 8.5516 8.8069
8.9818 9.1118 9.1782 9.1735 9.0921 8.9313
8.7227 8.4843 8.2009 7.8278 7.3611 6.8234
6.2211 5.5936 4.9708 4.3713 3.8935 3.5044
3.1818 2.9545 2.7825 2.6684 2.5833 2.5384
2.4608 2.3410 2.2185 2.0399 1.8052 1.5321
1.2647 0.9841 0.7335 0.4931 0.2088 -0.0951
-0.4589 -0.8881 -1.3539 -1.8551 -2.3826 -2.8988
-3.4440 -4.0004 -4.5325 -5.1011 -5.6613 -6.1766
-6.6489 -7.0145 -7.2895 -7.4606 -7.5102 -7.5551
-7.6224 -7.7327 -7.9263 -8.1947 -8.5155 -8.8512
-9.2234 -9.6443 -10.0988 -10.5486 -10.9975 -11.4389
-11.8223 -12.1618 -12.4423 -12.6799 -12.8660 -12.9305
-12.9324 -12.8781 -12.7023 -12.4825 -12.2310 -11.8878
-11.4884 -11.0293 -10.5364 -9.9753 -9.3263 -8.6904
-8.0292 -7.3465 -6.6339 -5.9063 -5.1732 -4.3970
-3.6413 -2.8623 -2.0992 -1.3352 -0.5403 0.2500
1.0598 1.8473 2.6319 3.4333 4.2582 5.1447
6.0977 7.0609 8.0279 9.0061 9.9497 10.8540
11.6124 12.2334 12.7038 12.9067 12.9086 12.6991
12.2381 11.6068 10.8194 9.8861 8.8798 7.8156
6.7093 5.5478 4.3302 3.0985 1.8547 0.5829
-0.6843 -1.8607 -2.9643 -3.9687 -4.8786 -5.7062
-6.3824 -6.9725 -7.4980 -7.8852 -8.1003 -8.1601
-8.1124 -8.0619 -8.0114 -7.8179 -7.4391 -6.8528
-6.0373 -5.0301 -3.8723 -2.5743 -1.1884 0.2144
1.6705 3.1182 4.5471 5.9742 7.2966 8.4796
9.5129 10.4369 11.1925 11.8565 12.4344 12.9067
13.3593 13.6614 13.8971 14.0430 14.0822 14.0794
13.9925 13.8120 13.5193 13.1686 12.6458 11.9509
11.1532 10.2461 9.2801 8.2682 7.2105 6.1697
5.1830 4.2198 3.3304 2.5009 1.7406 1.0383
0.3659 -0.2223 -0.7666 -1.2435 -1.6793 -2.1236
-2.5388 -2.9671 -3.3814 -3.7480 -4.1136 -4.4811
-4.8197 -5.1414 -5.5024 -5.8596 -6.1486 -6.3973
-6.5975 -6.6957 -6.7097 -6.6433 -6.4263 -6.0644
-5.5538 -4.8562 -4.0154 -3.0728 -2.0356 -0.9265
0.2574 1.4806 2.6964 3.9355 5.1250 6.2239
7.2311 8.0550 8.7208 9.2146 9.4783 9.5466
9.3941 9.0238 8.5338 7.8109 6.8692 5.8938
4.8230 3.6362 2.3943 1.1524 -0.1541 -1.4961
-2.7960 -4.1520 -5.4846 -6.8023 -8.0797 -9.2253
-10.2699 -11.1640 -11.8803 -12.4246 -12.8230 -13.0764
-13.2120 -13.2616 -13.2036 -13.0961 -12.9418 -12.7603
-12.5770 -12.3601 -12.1702 -11.9187 -11.6596 -11.4632
-11.1294 -10.7609 -10.3943 -9.9277 -9.4330 -8.8784
-8.2705 -7.6617 -7.0305 -6.4161 -5.8316 -5.2527
-4.6719 -4.1052 -3.5600 -3.0335 -2.5257 -2.0431
-1.5503 -1.0434 -0.5235 0.0526 0.6315 1.2160
1.8154 2.4065 2.9900 3.6287 4.2862 4.8819
5.5758 6.3043 6.9945 7.7286 8.4215 9.0780
9.7130 10.2788 10.8025 11.2514 11.5965 11.8480
11.9462 11.8565 11.6199 11.2710 10.8437 10.3770
9.8963 9.4428 8.9995 8.5740 8.1606 7.7501
7.3274 6.8878 6.4324 5.9265 5.3822 4.7388
4.0580 3.3388 2.5037 1.6359 0.7493 -0.1606
-1.0603 -1.9758 -2.8923 -3.7452 -4.5392 -5.2602
-5.9167 -6.4890 -6.9566 -7.3372 -7.6056 -7.7665
-7.8188 -7.7899 -7.6851 -7.5009 -7.2540 -6.9426
-6.5461 -6.0663 -5.5557 -5.0526 -4.5532 -4.0342
-3.4824 -2.8830 -2.2676 -1.6551 -1.0238 -0.3926
0.1564 0.6212 1.0214 1.3226 1.6274 1.8921
2.0810 2.2119 2.2549 2.3138 2.3382 2.3569
2.3905 2.4064 2.4812 2.5570 2.6337 2.7534
2.8619 2.9647 3.0685 3.1209 3.1237 3.1078
3.0648 2.9601 2.8076 2.6664 2.5420 2.4504
2.3849 2.3971 2.5018 2.6206 2.7973 3.0190
3.3079 3.6549 3.9691 4.3151 4.6228 4.8978
5.1792 5.4056 5.6038 5.7403 5.8170 5.8647
5.8329 5.6870 5.4495 5.1175 4.6565 4.1113
3.4828 2.7758 2.0511 1.2655 0.4837 -0.2560
-0.9658 -1.5550 -2.0310 -2.3789 -2.5688 -2.6754
-2.7015 -2.6239 -2.5126 -2.3864 -2.2274 -2.1040
-2.0422 -2.0170 -2.0451 -2.1348 -2.2976 -2.5285
-2.8474 -3.2636 -3.7639 -4.3540 -5.0086 -5.7147
-6.4498 -7.1652 -7.8301 -8.4071 -8.8934 -9.3096
-9.6677 -9.9492 -10.1550 -10.2859 -10.2980 -10.2345
-10.0325 -9.6761 -9.2114 -8.5923 -7.8376 -6.9557
-5.9261 -4.7964 -3.6508 -2.4173 -1.1707 0.0526
1.3169 2.5140 3.7353 4.9220 6.0415 7.1525
8.1484 9.0948 9.9842 10.8174 11.6310 12.4063
13.1563 13.8493 14.4787 15.0071 15.4232 15.7393
15.9301 15.9937 15.9329 15.8113 15.5803 15.2231
14.8210 14.3300 13.7801 13.1470 12.4166 11.5777
10.6397 9.6391 8.4982 7.2918 5.9984 4.6200
3.2200 1.7602 0.3097 -1.1220 -2.5099 -3.8285
-5.0507 -6.1412 -7.1558 -8.0340 -8.7952 -9.4611
-10.0100 -10.5178 -10.9302 -11.2940 -11.5811 -11.7616
-11.8916 -11.8710 -11.7756 -11.4998 -11.0153 -10.4271
-9.6603 -8.7457 -7.7160 -6.6761 -5.5053 -4.3316
-3.2720 -2.2181 -1.3231 -0.4955 0.1835 0.7146
1.1233 1.2823 1.3590 1.3244 1.1579 0.9353
0.6286 0.2976 -0.0531 -0.4497 -0.8471 -1.2483
-1.6121 -1.8777 -2.0647 -2.1760 -2.1620 -2.0114
-1.7514 -1.3895 -0.9397 -0.4160 0.1853 0.8278
1.4806 2.1595 2.8132 3.4500 4.0719 4.5928
5.0604 5.4682 5.7506 5.9760 6.0732 6.0312
5.9189 5.6505 5.3101 4.8874 4.3516 3.7689
3.1742 2.6168 2.0884 1.6414 1.3103 1.0953
0.9363 0.8521 0.8717 0.8746 0.9101 0.9690
1.0027 1.0560 1.0597 1.0541 1.0522 0.9868
0.9017 0.8044 0.6735 0.5313 0.3593 0.1395
-0.0503 -0.2402 -0.4169 -0.5488 -0.6779 -0.7284
-0.7377 -0.6797 -0.5095 -0.2841 0.0291 0.4126
0.8671 1.3786 1.9407 2.5607 3.1901 3.8550
4.5264 5.2119 5.9105 6.5361 7.1216 7.6668
8.1577 8.5692 8.9003 9.2108 9.4277 9.5371
9.5848 9.5727 9.4792 9.3202 9.1733 9.0097
8.8283 8.6749 8.5131 8.3130 8.0745 7.7734
7.3918 6.9457 6.3987 5.8001 5.1436 4.4432
3.7484 3.0301 2.3390 1.6685 1.0503 0.4687
-0.0906 -0.5928 -1.0501 -1.4531 -1.7823 -2.0180
-2.1975 -2.2892 -2.3135 -2.3023 -2.2434 -2.1732
-2.0432 -1.9189 -1.8356 -1.7300 -1.6682 -1.6692
-1.6701 -1.6963 -1.7412 -1.7561 -1.7739 -1.7664
-1.7271 -1.6654 -1.5354 -1.3540 -1.1380 -0.8808
-0.5974 -0.2963 0.0179 0.3237 0.6342 0.9344
1.2112 1.4843 1.7199 1.9444 2.1828 2.3970
2.6355 2.8824 3.0479 3.1629 3.2527 3.2976
3.2864 3.2331 3.1274 2.9890 2.8141 2.5560
2.2231 1.7929 1.3047 0.7745 0.2162 -0.3384
-0.8930 -1.4055 -1.8796 -2.3079 -2.6605 -2.9616
-3.2403 -3.4694 -3.6555 -3.8173 -3.9594 -4.0829
-4.1979 -4.3466 -4.4953 -4.6608 -4.8236 -4.9330
-5.0125 -5.0312 -5.0143 -4.9535 -4.8264 -4.6487
-4.4102 -4.1315 -3.7911 -3.4161 -3.0261 -2.5829
-2.1199 -1.6383 -1.1286 -0.6302 -0.1654 0.2573
0.5874 0.7997 0.9213 0.9222 0.8427 0.6781
0.4079 0.0777 -0.3412 -0.8004 -1.2689 -1.7375
-2.1751 -2.5529 -2.8513 -3.0654 -3.1804 -3.2281
-3.1496 -2.9682 -2.7587 -2.4791 -2.1611 -1.7992
-1.4101 -1.0305 -0.6190 -0.1879 0.2180 0.6061
1.0036 1.3739 1.7564 2.1080 2.3839 2.6233
2.7626 2.8113 2.7841 2.6953 2.5588 2.3306
2.0360 1.6834 1.2766 0.8053 0.2947 -0.2234
-0.7462 -1.2633 -1.7777 -2.2340 -2.6539 -3.0589
-3.4273 -3.7874 -4.1502 -4.5374 -4.9526 -5.4249
-5.9636 -6.5658 -7.2055 -7.8826 -8.6372 -9.4181
-10.2186 -11.0313 -11.8150 -12.5725 -13.2561 -13.8565
-14.3886 -14.7842 -15.0750 -15.2742 -15.3388 -15.2845
-15.1227 -14.8525 -14.4793 -14.0230 -13.4908 -12.8858
-12.2125 -11.5316 -10.8564 -10.1541 -9.4911 -8.8280
-8.1753 -7.5244 -6.8511 -6.1871 -5.4146 -4.5954
-3.7042 -2.7353 -1.7459 -0.6723 0.4134 1.5581
2.6794 3.7773 4.8883 5.9179 6.9045 7.7771
8.5252 9.1583 9.6587 10.0589 10.3572 10.5480
10.6163 10.5798 10.4367 10.2254 9.9439 9.5586
9.1078 8.6281 8.1156 7.5461 6.9709 6.4239
5.8917 5.3811 4.9210 4.5198 4.1317 3.7614
3.4172 3.0675 2.7318 2.4390 2.1099 1.7620
1.4066 0.9867 0.5855 0.1450 -0.3525 -0.8079
-1.2633 -1.6870 -2.0573 -2.4033 -2.6989 -2.9523
-3.1636 -3.3554 -3.5499 -3.7126 -3.8510 -3.9838
-4.1203 -4.2382 -4.3298 -4.3831 -4.4009 -4.3906
-4.2877 -4.1531 -3.9557 -3.6612 -3.3423 -2.9785
-2.6231 -2.3126 -1.9853 -1.6973 -1.4467 -1.2007
-1.0211 -0.8004 -0.6078 -0.4572 -0.3235 -0.2936
-0.2795 -0.3272 -0.4282 -0.6349 -0.9108 -1.2447
-1.6935 -2.1537 -2.6587 -3.1833 -3.7023 -4.1933
-4.6216 -4.9929 -5.2566 -5.3623 -5.3211 -5.1201
-4.7572 -4.3018 -3.7117 -3.0430 -2.3557 -1.6281
-0.9230 -0.2337 0.4115 0.9970 1.5310 1.9761
2.3464 2.6644 2.9197 3.1105 3.2891 3.4294
3.5285 3.6426 3.7146 3.7857 3.9007 4.0251
4.2215 4.4571 4.6975 5.0145 5.3306 5.6439
6.0226 6.3724 6.7315 7.1177 7.4750 7.8406
8.1764 8.4999 8.8385 9.1742 9.5305 9.8877
10.2571 10.6181 10.9351 11.2625 11.5589 11.8030
12.0424 12.2379 12.3688 12.4595 12.4847 12.4614
12.4118 12.2986 12.1331 11.9124 11.6160 11.2222
10.7537 10.2085 9.5558 8.8366 8.0305 7.1879
6.3527 5.4765 4.6189 3.7857 2.9580 2.1772
1.3972 0.6238 -0.1243 -0.8715 -1.5991 -2.3042
-3.0019 -3.6677 -4.3018 -4.9209 -5.4670 -5.9664
-6.4406 -6.8446 -7.2083 -7.5469 -7.8396 -8.0996
-8.3324 -8.5316 -8.6962 -8.8243 -8.9066 -8.9871
-9.0563 -9.0824 -9.1011 -9.0853 -9.0712 -9.0217
-8.9403 -8.8589 -8.7205 -8.6083 -8.4054 -8.1529
-7.9097 -7.5955 -7.2860 -6.9558 -6.6126 -6.1983
-5.7756 -5.3473 -4.8377 -4.3140 -3.7538 -3.2273
-2.7335 -2.2145 -1.7590 -1.3354 -0.9183 -0.5321
-0.1169 0.2628 0.6257 0.9801 1.3027 1.6067
1.8358 2.0041 2.1182 2.1996 2.2239 2.2211
2.1930 2.1435 2.1407 2.1154 2.1023 2.1192
2.1566 2.2875 2.4727 2.6849 2.9907 3.3601
3.7389 4.1625 4.6254 5.0968 5.5616 5.9899
6.3808 6.7044 6.9335 7.0681 7.0915 7.0102
6.8325 6.5603 6.2012 5.7832 5.3165 4.7872
4.2383 3.6631 3.0805 2.4998 1.9031 1.3401
0.7903 0.2563 -0.2394 -0.6911 -1.0876 -1.4766
-1.8114 -2.1079 -2.4118 -2.6998 -2.9991 -3.3236
-3.6631 -3.9960 -4.3448 -4.7124 -5.0285 -5.3202
-5.6092 -5.8402 -6.0169 -6.1273 -6.1815 -6.1984
-6.1516 -6.0861 -6.0141 -5.9028 -5.7841 -5.6550
-5.4867 -5.3062 -5.0687 -4.7722 -4.4730 -4.1138
-3.7155 -3.3002 -2.8130 -2.2902 -1.7291 -1.1287
-0.5293 0.1581 0.8548 1.5318 2.2379 2.9075
3.5967 4.2514 4.8863 5.5428 6.1357 6.6763
7.1476 7.5310 7.8462 8.0501 8.1801 8.2661
8.2979 8.3147 8.2680 8.1997 8.1211 8.0014
7.8724 7.7171 7.5713 7.3861 7.1532 6.8932
6.5528 6.1947 5.8234 5.3998 4.9948 4.6198
4.2551 3.9577 3.7127 3.5060 3.4003 3.3732
3.4303 3.6229 3.8820 4.2008 4.5656 4.9237
5.2875 5.5933 5.8730 6.1152 6.2433 6.3415
6.3751 6.3377 6.2302 6.0432 5.8112 5.5007
5.1594 4.7788 4.3832 4.0325 3.6977 3.3601
3.0571 2.7943 2.5100 2.2426 1.9854 1.6964
1.4159 1.1035 0.7481 0.3806 -0.0028 -0.3722
-0.7528 -1.1521 -1.5262 -1.9209 -2.3202 -2.6915
-3.0431 -3.4003 -3.7688 -4.0933 -4.4402 -4.7816
-5.1183 -5.4559 -5.7280 -5.9964 -6.2264 -6.3920
-6.5145 -6.5743 -6.5397 -6.4434 -6.3125 -6.1311
-5.9319 -5.7140 -5.5007 -5.3062 -5.1173 -4.9490
-4.8265 -4.7274 -4.6581 -4.6226 -4.6329 -4.7245
-4.8499 -5.0350 -5.2707 -5.5522 -5.8664 -6.2040
-6.6071 -7.0242 -7.4478 -7.9107 -8.3979 -8.8618
-9.3172 -9.7671 -10.1963 -10.6340 -11.0080 -11.3438
-11.6271 -11.8123 -11.9507 -11.9881 -11.9722 -11.9348
-11.8497 -11.7431 -11.6187 -11.5130 -11.4102 -11.3344
-11.2764 -11.2278 -11.2568 -11.2933 -11.3662 -11.5205
-11.6776 -11.8740 -12.0760 -12.2528 -12.4398 -12.5773
-12.6512 -12.6774 -12.6484 -12.5661 -12.4024 -12.1424
-11.8273 -11.4317 -10.9931 -10.5302 -10.0504 -9.5557
-9.0292 -8.5279 -8.0127 -7.4918 -6.9681 -6.4687
-5.9712 -5.4278 -4.9107 -4.3598 -3.8015 -3.2704
-2.7345 -2.2417 -1.7666 -1.2756 -0.8211 -0.3919
0.0383 0.4049 0.6995 0.9221 1.0221 1.0324
0.9679 0.7921 0.5302 0.2038 -0.1627 -0.5855
-1.0343 -1.4496 -1.8526 -2.2033 -2.4960 -2.7298
-2.8832 -2.9664 -2.9646 -2.8879 -2.7439 -2.5493
-2.3146 -2.0584 -1.8077 -1.5403 -1.2681 -1.0278
-0.7865 -0.5602 -0.3844 -0.1908 -0.0225 0.1056
0.2562 0.3946 0.5227 0.6555 0.7893 0.9370
1.1222 1.3204 1.5524 1.8460 2.1780 2.5549
2.9767 3.4555 3.9586 4.4542 4.9761 5.4960
5.9842 6.4593 6.8885 7.2448 7.5329 7.7255
7.8274 7.8340 7.7414 7.5955 7.3935 7.1569
6.9194 6.6687 6.4265 6.1955 5.9552 5.7280
5.5101 5.2800 5.0658 4.8349 4.5954 4.3673
4.1419 3.9380 3.7098 3.5050 3.3133 3.1150
2.9467 2.7578 2.6101 2.4791 2.3426 2.2687
2.2089 2.1714 2.1658 2.1686 2.1864 2.1714
2.1322 2.0658 1.9367 1.7862 1.6216 1.4055
1.1727 0.9333 0.6985 0.5068 0.3245 0.1823
0.0804 -0.0085 -0.0618 -0.1357 -0.2105 -0.2825
-0.3751 -0.4620 -0.5527 -0.6332 -0.7052 -0.7828
-0.8417 -0.8978 -0.9483 -0.9717 -0.9998 -1.0147
-1.0091 -0.9998 -0.9530 -0.8623 -0.7239 -0.5163
-0.2273 0.1038 0.4872 0.9548 1.4775 2.0620
2.7316 3.4424 4.1493 4.9106 5.6709 6.3975
7.1092 7.7900 8.4690 9.0974 9.6968 10.2916
10.8509 11.3708 11.8571 12.2910 12.6689 13.0130
13.2683 13.4535 13.6087 13.7265 13.8191 13.8659
13.8809 13.8593 13.7752 13.6368 13.4497 13.1757
12.7867 12.2976 11.7075 11.0379 10.2617 9.3985
8.5064 7.5543 6.5799 5.5802 4.5674 3.5976
2.6222 1.6664 0.7518 -0.1665 -1.0680 -1.9284
-2.7345 -3.5033 -4.2252 -4.9098 -5.5382 -6.1143
-6.6726 -7.1589 -7.5966 -8.0108 -8.3690 -8.6860
-8.9806 -9.2313 -9.4370 -9.5969 -9.7194 -9.7989
-9.8326 -9.8737 -9.8980 -9.9177 -9.9457 -9.9906
-10.0131 -10.0608 -10.1608 -10.1431 -10.1449 -10.1356
-10.0682 -10.0056 -9.8653 -9.6643 -9.3650 -9.0265
-8.6374 -8.1932 -7.6789 -7.1149 -6.5435 -5.9095
-5.2221 -4.4983 -3.7352 -2.8898 -2.0388 -1.1672
-0.2432 0.6433 1.5252 2.4127 3.2955 4.1643
4.9994 5.8121 6.5948 7.3607 8.0995 8.7794
9.4247 10.0316 10.5946 11.1043 11.5812 12.0282
12.3817 12.6632 12.8811 13.0027 13.0476 13.0195
12.9110 12.7483 12.5192 12.2583 11.9974 11.6747
11.3166 10.9631 10.5937 10.2112 9.7960 9.3592
8.9131 8.4474 7.9555 7.4318 6.9259 6.4237
5.9439 5.5137 5.0882 4.6842 4.3008 3.9501
3.6004 3.2684 2.9439 2.6203 2.3229 2.0227
1.7440 1.4990 1.3185 1.1782 1.0857 1.0632
1.1044 1.2259 1.4111 1.6589 1.9498 2.2808
2.6839 3.1103 3.5330 3.9529 4.3382 4.6749
4.9442 5.1378 5.2818 5.3669 5.3716 5.2884
5.1303 4.9339 4.6814 4.3579 4.0109 3.6443
3.2384 2.8026 2.3351 1.8431 1.3569 0.8659
0.3637 -0.1151 -0.5902 -1.0643 -1.5067 -1.9256
-2.3287 -2.6944 -3.0245 -3.3415 -3.6183 -3.8690
-4.1196 -4.3524 -4.5984 -4.8808 -5.1876 -5.5392
-5.9329 -6.3004 -6.6698 -7.0476 -7.3834 -7.7004
-7.9464 -8.1334 -8.2447 -8.2559 -8.2054 -8.0352
-7.7949 -7.4647 -7.0663 -6.6923 -6.2864 -5.8890
-5.5177 -5.1689 -4.8453 -4.5292 -4.2730 -4.0392
-3.8213 -3.6380 -3.4968 -3.3789 -3.2667 -3.2134
-3.1666 -3.1461 -3.1816 -3.2199 -3.2723 -3.3555
-3.4668 -3.5940 -3.7427 -3.8605 -4.0083 -4.1701
-4.2767 -4.4039 -4.4974 -4.5825 -4.6751 -4.7536
-4.8154 -4.8359 -4.8902 -4.9585 -5.0099 -5.0725
-5.1212 -5.1717 -5.2456 -5.3176 -5.3681 -5.4410
-5.5308 -5.6224 -5.7328 -5.8469 -5.9984 -6.1882
-6.3566 -6.5211 -6.7026 -6.8457 -6.9897 -7.1243
-7.1973 -7.2665 -7.2805 -7.2553 -7.2020 -7.0579
-6.8905 -6.6755 -6.3949 -6.0863 -5.7543 -5.4148
-5.0688 -4.7265 -4.4086 -4.1346 -3.8886 -3.6894
-3.5389 -3.4220 -3.3453 -3.3023 -3.2770 -3.2153
-3.1536 -3.0731 -2.9590 -2.8627 -2.6906 -2.4840
-2.2773 -2.0781 -1.8967 -1.7022 -1.5731 -1.4824
-1.4310 -1.4263 -1.4543 -1.5572 -1.7199 -1.9116
-2.1239 -2.4073 -2.7150 -3.0283 -3.3565 -3.6258
-3.9055 -4.1617 -4.4058 -4.6471 -4.7789 -4.8734
-4.9126 -4.9098 -4.8238 -4.6199 -4.4647 -4.2047
-3.9316 -3.7455 -3.3013 -2.9301 -2.7019 -2.3231
-2.0042 -1.6853 -1.3795 -1.0887 -0.7604 -0.5491
-0.3910 -0.2704 -0.1470 -0.0207 0.0560 0.1177
0.1710 0.2655 0.3758 0.5021 0.6423 0.7892
0.9575 1.1380 1.3475 1.5448 1.7449 1.9694
2.1695 2.3453 2.4912 2.6034 2.6866 2.7147
2.6941 2.6623 2.5950 2.5295 2.4790 2.3939
2.3696 2.3472 2.3051 2.3266 2.3369 2.3612
2.3958 2.4313 2.5164 2.5987 2.6876 2.8138
2.9307 3.0579 3.2113 3.3656 3.5199 3.6882
3.8500 3.9959 4.1493 4.2914 4.4541 4.6094
4.7693 4.9516 5.0854 5.2528 5.4239 5.5548
5.6979 5.8270 5.9270 6.0393 6.1505 6.2581
6.4199 6.5742 6.7509 6.9707 7.1718 7.4140
7.6609 7.8731 8.1135 8.3370 8.5268 8.7578
8.9430 9.0861 9.2413 9.3489 9.4349 9.4901
9.4854 9.4517 9.3517 9.1852 8.9776 8.6839
8.3482 7.9648 7.5122 7.0380 6.5237 5.9944
5.4679 4.9442 4.4392 3.9622 3.5236 3.1093
2.7278 2.3733 2.0516 1.7739 1.5204 1.3194
1.1501 1.0201 0.9397 0.8668 0.8228 0.7816
0.7639 0.7499 0.7237 0.7115 0.6928 0.7059
0.7143 0.7340 0.7742 0.7910 0.8181 0.8424
0.8901 0.9425 0.9986 1.0641 1.1192 1.1884
1.2623 1.3325 1.3830 1.4531 1.4868 1.4943
1.4821 1.3848 1.3306 1.2427 1.1230 1.0557
0.9677 0.9126 0.8929 0.8929 0.9603 1.0762
1.2548 1.5139 1.8075 2.1451 2.5435 2.9625
3.4067 3.8855 4.3784 4.8637 5.3219 5.7521
6.1552 6.5171 6.8164 7.0810 7.2971 7.4542
7.5916 7.6618 7.7020 7.7413 7.7226 7.6889
7.6590 7.5823 7.4860 7.3831 7.2372 7.0735
6.8874 6.6836 6.4844 6.2749 6.0327 5.7549
5.4463 5.0797 4.6720 4.2035 3.6685 3.0981
2.4818 1.8150 1.1024 0.3776 -0.3397 -1.0691
-1.7957 -2.4887 -3.1938 -3.9083 -4.5854 -5.2325
-5.8376 -6.4118 -6.9261 -7.3760 -7.7977 -8.1456
-8.4645 -8.7685 -8.9994 -9.2211 -9.3857 -9.4773
-9.5419 -9.5400 -9.4829 -9.4044 -9.2847 -9.1163
-8.9349 -8.7049 -8.4608 -8.2027 -7.9044 -7.6042
-7.3105 -7.0075 -6.6783 -6.3931 -6.0798 -5.7815
-5.5187 -5.2279 -5.0184 -4.8033 -4.6163 -4.4601
-4.3441 -4.3002 -4.2347 -4.2188 -4.2020 -4.2010
-4.2319 -4.2113 -4.1898 -4.1889 -4.1805 -4.1786
-4.1758 -4.1627 -4.1636 -4.1646 -4.1356 -4.0869
-4.0364 -3.9401 -3.8139 -3.6755 -3.4987 -3.3070
-3.1125 -2.9161 -2.7337 -2.5598 -2.4083 -2.2923
-2.1960 -2.1436 -2.1100 -2.0800 -2.0810 -2.0857
-2.1081 -2.1399 -2.1175 -2.0903 -2.0398 -1.9575
-1.8818 -1.7733 -1.6602 -1.5395 -1.4142 -1.2758
-1.1421 -0.9943 -0.8522 -0.7016 -0.5370 -0.4369
-0.2621 -0.1152 0.0157 0.1924 0.3561 0.5590
0.7133 0.9219 1.1660 1.3895 1.6326 1.8524
2.0890 2.3031 2.5229 2.7249 2.8699 3.0373
3.1860 3.3234 3.4366 3.5217 3.6414 3.7246
3.8181 3.9696 4.1155 4.2820 4.4887 4.7150
4.9404 5.1816 5.4397 5.7128 6.0083 6.2758
6.5479 6.8173 7.0567 7.3110 7.5383 7.7356
7.9161 8.0564 8.1892 8.3023 8.3800 8.4566
8.5146 8.5277 8.5230 8.4856 8.4248 8.3622
8.2593 8.1405 8.0096 7.8497 7.6786 7.4700
7.2119 6.9716 6.7247 6.4600 6.2113 5.9382
5.6950 5.4874 5.2836 5.1003 4.9254 4.7701
4.6121 4.4606 4.3128 4.1314 3.9210 3.6835
3.4469 3.1644 2.8399 2.5023 2.1413 1.7981
1.4362 1.0640 0.7423 0.4412 0.1616 -0.1124
-0.3986 -0.6567 -0.9251 -1.1907 -1.4498 -1.7303
-1.9838 -2.2194 -2.4373 -2.6113 -2.7506 -2.8600
-2.9077 -2.9189 -2.9395 -2.9012 -2.8722 -2.8806
-2.8535 -2.8647 -2.8890 -2.9358 -3.0396 -3.1387
-3.2874 -3.4810 -3.6867 -3.9271 -4.1740 -4.4339
-4.7154 -4.9810 -5.2373 -5.5019 -5.7572 -5.9994
-6.2482 -6.4708 -6.6971 -6.9066 -7.0637 -7.2339
-7.3536 -7.4368 -7.4967 -7.4939 -7.4920 -7.4686
-7.4303 -7.3723 -7.2937 -7.2227 -7.1656 -7.1039
-7.0197 -7.0038 -6.9851 -6.9889 -7.0403 -7.0674
-7.1506 -7.2460 -7.3461 -7.4892 -7.6136 -7.7436
-7.9044 -8.0681 -8.2355 -8.4001 -8.5712 -8.7442
-8.9153 -9.0631 -9.1837 -9.2866 -9.3596 -9.4054
-9.4091 -9.3867 -9.3577 -9.3016 -9.1987 -9.0912
-8.9780 -8.8527 -8.7386 -8.5993 -8.4319 -8.2504
-8.0625 -7.8969 -7.6968 -7.4780 -7.2881 -7.0656
-6.8579 -6.6531 -6.4137 -6.1902 -5.9461 -5.6946
-5.4496 -5.1849 -4.9231 -4.6706 -4.3965 -4.1104
-3.8093 -3.5006 -3.1930 -2.8479 -2.4906 -2.1371
-1.7780 -1.4348 -1.1038 -0.7531 -0.4043 -0.0592
0.2868 0.6338 0.9957 1.3268 1.6588 1.9861
2.2891 2.6089 2.9222 3.2177 3.5207 3.8106
4.0771 4.3577 4.6345 4.9038 5.1741 5.4294
5.6772 5.9148 6.1205 6.3047 6.4824 6.6218
6.7200 6.7714 6.7602 6.7237 6.6451 6.5105
6.3468 6.1271 5.8633 5.6080 5.3293 5.0011
4.6598 4.3119 3.9574 3.5880 3.2261 2.8997
2.5294 2.1516 1.8131 1.4493 1.0948 0.7628
0.4234 0.0923 -0.2182 -0.5268 -0.8139 -1.0701
-1.3179 -1.5265 -1.6986 -1.8248 -1.8987 -1.9370
-1.9258 -1.8622 -1.7612 -1.6191 -1.4199 -1.1786
-0.9102 -0.6231 -0.2761 0.0951 0.4496 0.8573
1.2706 1.6746 2.1104 2.5369 2.9474 3.3552
3.7433 4.1173 4.4849 4.8281 5.1442 5.4228
5.6613 5.8961 6.1111 6.2954 6.4908 6.6760
6.8677 7.0865 7.3119 7.5663 7.8525 8.1526
8.4622 8.7839 9.1075 9.4357 9.7574 10.0473
10.3176 10.5458 10.7122 10.8376 10.9142 10.9152
10.8291 10.6926 10.5187 10.2671 9.9650 9.6199
9.2281 8.8194 8.3668 7.8768 7.3662 6.8181
6.2533 5.6847 5.0843 4.4830 3.8910 3.2523
2.6257 1.9945 1.3183 0.6497 -0.0152 -0.6727
-1.3105 -1.9212 -2.5019 -3.0537 -3.5830 -4.0552
-4.4910 -4.9034 -5.2495 -5.5543 -5.8124 -6.0173
-6.1865 -6.2922 -6.3539 -6.3876 -6.3539 -6.2885
-6.1996 -6.0537 -5.9004 -5.6918 -5.4131 -5.1410
-4.8109 -4.4218 -4.0178 -3.5502 -3.0714 -2.5590
-2.0109 -1.4854 -0.9214 -0.3669 0.1615 0.6637
1.1500 1.6279 2.0216 2.3835 2.6668 2.9063
3.0895 3.2233 3.3430 3.3261 3.3271 3.2925
3.1962 3.1382 3.0269 2.9371 2.8361 2.7052
2.5761 2.4536 2.3283 2.1731 2.0431 1.8560
1.6755 1.5269 1.3267 1.1416 0.9255 0.7123
0.5346 0.3429 0.1222 -0.0845 -0.2706 -0.4698
-0.6456 -0.8448 -1.0159 -1.1814 -1.3685 -1.5190
-1.6920 -1.8529 -2.0175 -2.1933 -2.3429 -2.4972
-2.6740 -2.8433 -3.0013 -3.1771 -3.3398 -3.5175
-3.6746 -3.8243 -3.9823 -4.0824 -4.1759 -4.2395
-4.2554 -4.2610 -4.2170 -4.1179 -4.0253 -3.8897
-3.7111 -3.5624 -3.3978 -3.2547 -3.1163 -2.9695
-2.8947 -2.8255 -2.7488 -2.7320 -2.7282 -2.7460
-2.8087 -2.8470 -2.9181 -3.0387 -3.1210 -3.2323
-3.3473 -3.4530 -3.5671 -3.6728 -3.7878 -3.8907
-3.9861 -4.0740 -4.1703 -4.2517 -4.3508 -4.4162
-4.4537 -4.5042 -4.5014 -4.5201 -4.5098 -4.4602
-4.3826 -4.2835 -4.1834 -4.0319 -3.8757 -3.7270
-3.5924 -3.4474 -3.2894 -3.1603 -3.0462 -2.9218
-2.7984 -2.7039 -2.6244 -2.5637 -2.4804 -2.4075
-2.3112 -2.1615 -2.0194 -1.8183 -1.5798 -1.3133
-1.0206 -0.7335 -0.4137 -0.0779 0.2522 0.5982
0.9414 1.2874 1.6390 1.9710 2.2899 2.5499
2.7725 2.9661 3.1157 3.2073 3.2578 3.2719
3.2289 3.1924 3.1073 2.9773 2.8426 2.6584
2.4704 2.2581 2.0038 1.7288 1.4193 1.0807
0.7235 0.3307 -0.0602 -0.4417 -0.8682 -1.2843
-1.6752 -2.0774 -2.4514 -2.8236 -3.1977 -3.5306
-3.8729 -4.2068 -4.5201 -4.8343 -5.1083 -5.3524
-5.5693 -5.7311 -5.8275 -5.8686 -5.8536 -5.7835
-5.6516 -5.4394 -5.1822 -4.8558 -4.4574 -4.0188
-3.5176 -2.9798 -2.4197 -1.8342 -1.2451 -0.6587
-0.0714 0.5234 1.0985 1.6241 2.1375 2.6088
3.0100 3.3654 3.6787 3.9171 4.0986 4.2482
4.3380 4.3810 4.3772 4.3408 4.2678 4.1500
4.0041 3.8302 3.6441 3.4299 3.1933 2.9315
2.6472 2.3582 2.0561 1.7456 1.4698 1.2032
0.9320 0.7356 0.5645 0.4121 0.3307 0.2746
0.2914 0.3616 0.4672 0.6290 0.8048 1.0349
1.2762 1.5268 1.8167 2.0945 2.3741 2.6864
2.9829 3.2709 3.5917 3.8788 4.1593 4.4333
4.6849 4.9365 5.1600 5.3536 5.5294 5.7043
5.8539 5.9736 6.0877 6.1803 6.2298 6.2626
6.2906 6.2710 6.2252 6.1700 6.0587 5.9222
5.7735 5.5640 5.3358 5.0777 4.7803 4.4932
4.1883 3.8760 3.5636 3.2522 2.9660 2.7089
2.4470 2.1870 1.9645 1.7353 1.5455 1.3856
1.2135 1.0695 0.9358 0.8235 0.7412 0.6580
0.5991 0.5551 0.5028 0.4710 0.4392 0.3999
0.3597 0.3176 0.2952 0.2447 0.1951 0.1895
0.1698 0.1465 0.1474 0.1502 0.1446 0.1502
0.1614 0.1661 0.1998 0.2400 0.2877 0.3681
0.4467 0.5570 0.6879 0.7992 0.9545 1.1088
1.2416 1.4174 1.5810 1.7381 1.9093 2.0598
2.2291 2.3974 2.5489 2.7425 2.9501 3.1475
3.3728 3.6309 3.8956 4.1387 4.3875 4.6428
4.8701 5.0739 5.2507 5.3956 5.4920 5.5237
5.4938 5.4181 5.2787 5.0795 4.8598 4.5820
4.2743 3.9508 3.5786 3.2017 2.8164 2.3834
1.9616 1.5305 1.0526 0.6028 0.1231 -0.3614
-0.8327 -1.3274 -1.7810 -2.2439 -2.7152 -3.1576
-3.5887 -4.0413 -4.4902 -4.9129 -5.3608 -5.7779
-6.1688 -6.5588 -6.9282 -7.2789 -7.5754 -7.8325
-8.0719 -8.2637 -8.4123 -8.5377 -8.6143 -8.6714
-8.7182 -8.7303 -8.7359 -8.7275 -8.6938 -8.6546
-8.6097 -8.5564 -8.4881 -8.3965 -8.3039 -8.2038
-8.0579 -7.8905 -7.7035 -7.4912 -7.2509 -6.9853
-6.7206 -6.4214 -6.1081 -5.7798 -5.4244 -5.0822
-4.7492 -4.4303 -4.0778 -3.7486 -3.4447 -3.1491
-2.8957 -2.6460 -2.4253 -2.2121 -2.0541 -1.9325
-1.7997 -1.7024 -1.6257 -1.5678 -1.4864 -1.3891
-1.3012 -1.1946 -1.0815 -0.9515 -0.7878 -0.5980
-0.3950 -0.1612 0.1006 0.3755 0.6496 0.9226
1.1901 1.4445 1.7194 1.9560 2.1720 2.3871
2.5779 2.7780 2.9585 3.1175 3.2830 3.4701
3.6375 3.8357 4.0461 4.2537 4.4763 4.6802
4.9168 5.1543 5.3863 5.6341 5.8838 6.1325
6.3775 6.6123 6.8077 6.9882 7.1519 7.2678
7.3632 7.4446 7.4736 7.4745 7.4642 7.4240
7.3492 7.2370 7.1135 6.9452 6.7619 6.5627
6.3261 6.1148 5.8641 5.5882 5.3245 5.0365
4.7213 4.4015 4.0817 3.7525 3.3962 2.9894
2.5882 2.1823 1.7465 1.3154 0.8618 0.4036
-0.0275 -0.4717 -0.8991 -1.3171 -1.7408 -2.1251
-2.5142 -2.9088 -3.2689 -3.6271 -3.9927 -4.3350
-4.6735 -5.0177 -5.3412 -5.6676 -5.9912 -6.3101
-6.6159 -6.9105 -7.2051 -7.4809 -7.7493 -7.9916
-8.2038 -8.4030 -8.5835 -8.7247 -8.8304 -8.9211
-8.9726 -9.0006 -9.0128 -8.9959 -8.9959 -8.9679
-8.9099 -8.8734 -8.7939 -8.7201 -8.6387 -8.5265
-8.4161 -8.2740 -8.1515 -7.9785 -7.7924 -7.5978
-7.3612 -7.1218 -6.8460 -6.5607 -6.2222 -5.9070
-5.5900 -5.2234 -4.8624 -4.4846 -4.1040 -3.6841
-3.2483 -2.8032 -2.3440 -1.8914 -1.4378 -0.9730
-0.5017 -0.0743 0.3288 0.7365 1.0965 1.4285
1.7521 2.0261 2.3029 2.5470 2.7724 2.9884
3.1820 3.3915 3.5645 3.7468 3.9180 4.0667
4.2051 4.3369 4.4529 4.5193 4.5932 4.6194
4.6166 4.5885 4.5240 4.4641 4.3846 4.3089
4.2070 4.1162 4.0424 3.9694 3.9376 3.9040
3.8955 3.9236 3.9713 4.0508 4.1424 4.2593
4.3874 4.5156 4.6661 4.8064 4.9542 5.1094
5.2487 5.4189 5.5761 5.7051 5.8529 5.9950
6.1166 6.2251 6.3177 6.4046 6.4794 6.5187
6.5299 6.5337 6.5056 6.4411 6.3672 6.2653
6.1605 6.0268 5.8510 5.6742 5.4433 5.2038
4.9298 4.5988 4.2864 3.9236 3.5374 3.1577
2.7453 2.3282 1.9186 1.5015 1.0918 0.7084
0.3222 -0.0201 -0.3521 -0.6728 -0.9431 -1.2171
-1.4547 -1.6726 -1.8839 -2.0644 -2.2178 -2.3749
-2.5282 -2.6208 -2.7031 -2.7723 -2.8266 -2.8817
-2.9145 -2.9631 -3.0220 -3.0884 -3.1530 -3.1876
-3.2278 -3.2951 -3.3391 -3.3783 -3.4307 -3.4429
-3.4681 -3.5177 -3.5598 -3.6103 -3.6589 -3.7187
-3.7618 -3.7777 -3.7805 -3.7533 -3.7187 -3.6355
-3.5280 -3.4055 -3.2427 -3.0753 -2.8453 -2.6470
-2.4385 -2.1888 -2.0092 -1.8026 -1.6034 -1.4154
-1.2153 -1.0404 -0.8440 -0.6336 -0.4344 -0.2099
0.0472 0.3110 0.6149 0.9226 1.2480 1.5950
1.9559 2.3309 2.6816 3.0632 3.4513 3.8198
4.1667 4.5155 4.8410 5.1178 5.3955 5.6162
5.8051 5.9538 6.0492 6.1427 6.1811 6.1745
6.1502 6.0754 5.9557 5.8229 5.6415 5.4189
5.1861 4.9102 4.6306 4.3322 4.0077 3.7038
3.4073 3.1090 2.7995 2.5189 2.2178 1.9045
1.5912 1.2405 0.9319 0.6037 0.2820 -0.0192
-0.3362 -0.6280 -0.9067 -1.1461 -1.3948 -1.6193
-1.7904 -1.9531 -2.0654 -2.1168 -2.1458 -2.1542
-2.1074 -2.0588 -1.9653 -1.8278 -1.7268 -1.5903
-1.4350 -1.2676 -1.0900 -0.9357 -0.7785 -0.6186
-0.4625 -0.3119 -0.1595 -0.0444 0.0631 0.1538
0.2109 0.2399 0.2025 0.1492 0.0640 -0.0585
-0.1782 -0.3400 -0.5251 -0.6832 -0.8478 -1.0114
-1.1461 -1.2658 -1.3883 -1.5061 -1.6109 -1.7212
-1.8306 -1.9298 -2.0382 -2.1421 -2.2412 -2.3497
-2.4507 -2.5292 -2.6050 -2.7032 -2.7602 -2.8173
-2.8762 -2.9164 -2.9800 -3.0202 -3.0791 -3.1315
-3.1651 -3.2044 -3.2418 -3.2680 -3.2540 -3.2521
-3.2269 -3.1895 -3.1539 -3.0847 -3.0295 -2.9669
-2.8930 -2.8313 -2.7668 -2.6985 -2.6246 -2.5498
-2.4525 -2.3674 -2.2786 -2.1495 -2.0485 -1.9232
-1.7858 -1.6595 -1.5033 -1.3677 -1.2209 -1.0675
-0.9366 -0.8001 -0.6598 -0.5233 -0.3942 -0.2839
-0.1791 -0.0706 0.0117 0.0874 0.1501 0.2024
0.2623 0.3006 0.3418 0.3717 0.4091 0.4624
0.4886 0.5260 0.5615 0.5774 0.6008 0.6261
0.6420 0.6476 0.6635 0.6803 0.6878 0.7102
0.7420 0.7972 0.8673 0.9309 1.0058 1.0909
1.1965 1.3134 1.4163 1.5276 1.6473 1.7717
1.8923 1.9989 2.1102 2.2224 2.3216 2.3898
2.4300 2.4590 2.4469 2.4169 2.3599 2.2589
2.1551 2.0195 1.8540 1.6660 1.4659 1.3059
1.1273 0.9412 0.7963 0.6392 0.5335 0.4456
0.3464 0.3259 0.3025 0.2744 0.2913 0.2969
0.3044 0.3334 0.3240 0.3231 0.3333 0.3100
0.3090 0.3090 0.2969 0.2866 0.2698 0.2417
0.2090 0.1594 0.1173 0.0687 0.0032 -0.0398
-0.1305 -0.2203 -0.3026 -0.4279 -0.5467 -0.6738
-0.8282 -1.0086 -1.1891 -1.3771 -1.5707 -1.7624
-1.9532 -2.1318 -2.3244 -2.5059 -2.6461 -2.7696
-2.8594 -2.9052 -2.9323 -2.9389 -2.9117 -2.8519
-2.7771 -2.6742 -2.5480 -2.3937 -2.2487 -2.1103
-1.9195 -1.7474 -1.5838 -1.4388 -1.3116 -1.1742
-1.0722 -0.9675 -0.8730 -0.7945 -0.7103 -0.6252
-0.5439 -0.4662 -0.3952 -0.3166 -0.2212 -0.1548
-0.1053 -0.0660 -0.0333 -0.0005 -0.0005 -0.0005
0.0023 -0.0351 -0.0725 -0.0753 -0.1174 -0.1754
-0.2128 -0.2699 -0.3232 -0.3933 -0.4887 -0.5682
-0.6449 -0.7412 -0.8347 -0.9329 -1.0395 -1.1237
-1.2396 -1.3360 -1.4080 -1.5137 -1.5894 -1.6801
-1.7512 -1.7643 -1.8129 -1.8400 -1.8316 -1.8344
-1.8176 -1.7989 -1.7895 -1.7634 -1.7400 -1.7568
-1.7615 -1.7802 -1.8241 -1.8513 -1.9083 -1.9532
-2.0196 -2.0982 -2.1402 -2.1945 -2.2375 -2.2581
-2.2627 -2.2403 -2.2057 -2.1636 -2.1066 -2.0243
-1.9513 -1.8943 -1.7886 -1.7119 -1.6437 -1.5483
-1.4959 -1.4351 -1.3930 -1.3696 -1.3594 -1.3855
-1.4145 -1.4501 -1.4903 -1.5389 -1.6006 -1.6577
-1.6942 -1.7297 -1.7493 -1.7512 -1.7437 -1.7166
-1.6895 -1.6427 -1.5791 -1.5324 -1.4800 -1.4211
-1.3566 -1.2733 -1.1948 -1.0919 -0.9703 -0.8460
-0.7047 -0.5635 -0.4027 -0.2147 -0.0286 0.1407
0.3333 0.5306 0.6896 0.8617 1.0151 1.1497
1.3162 1.4406 1.5350 1.6351 1.6968 1.7454
1.7969 1.8090 1.8081 1.8090 1.7828 1.7641
1.7445 1.7108 1.7005 1.6912 1.6837 1.6968
1.7080 1.7529 1.8352 1.9025 1.9886 2.0868
2.1896 2.3234 2.4365 2.5553 2.6862 2.7797
2.8845 2.9817 3.0650 3.1398 3.1950 3.2567
3.2969 3.3203 3.3240 3.3128 3.2651 3.1791
3.0883 2.9378 2.7694 2.5693 2.3159 2.0531
1.7323 1.3788 1.0076 0.5905 0.1594 -0.2736
-0.7178 -1.1574 -1.5979 -2.0430 -2.4517 -2.8416
-3.2054 -3.5066 -3.8030 -4.0817 -4.3033 -4.4941
-4.6260 -4.7401 -4.8280 -4.8495 -4.8682 -4.8486
-4.8093 -4.7747 -4.6961 -4.6148 -4.5212 -4.4212
-4.3361 -4.2341 -4.1425 -4.0574 -3.9676 -3.9050
-3.8292 -3.7731 -3.7263 -3.6730 -3.6122 -3.5683
-3.5580 -3.4897 -3.4402 -3.3728 -3.3214 -3.2260
-3.0642 -2.9782 -2.7884 -2.6312 -2.4723 -2.2534
-2.0748 -1.8073 -1.5707 -1.3023 -1.0124 -0.7356
-0.4055 -0.1324 0.1752 0.4969 0.7691 1.0580
1.3283 1.5752 1.8127 2.0241 2.2036 2.3645
2.4964 2.5824 2.6441 2.6610 2.6825 2.6750
2.6329 2.6133 2.5646 2.5244 2.4814 2.4431
2.4141 2.3851 2.3916 2.4056 2.4309 2.5048
2.6179 2.7255 2.8639 3.0490 3.2351 3.4540
3.6887 3.9272 4.1937 4.4565 4.7427 5.0288
5.2944 5.5890 5.8686 6.1249 6.3867 6.6429
6.8954 7.1190 7.3350 7.5538 7.7511 7.9429
8.1187 8.3169 8.4703 8.5937 8.7275 8.8116
8.9033 8.9426 8.9585 8.9641 8.9407 8.9248
8.8668 8.8088 8.7583 8.7032 8.6302 8.5610
8.4862 8.4160 8.3693 8.2973 8.2664 8.2374
8.2019 8.1841 8.1589 8.1607 8.1448 8.1374
8.1495 8.1561 8.1823 8.2112 8.2384 8.2655
8.2842 8.2945 8.3169 8.3403 8.3216 8.3010
8.2879 8.2477 8.2075 8.1645 8.1121 8.0429
7.9737 7.9092 7.8128 7.7212 7.6043 7.4762
7.3546 7.1956 7.0207 6.8375 6.6514 6.4316
6.1810 5.9331 5.6516 5.3458 5.0344 4.6987
4.3536 3.9870 3.6073 3.2501 2.8582 2.4542
2.0895 1.7173 1.3676 1.0169 0.6559 0.3295
0.0144 -0.2896 -0.5673 -0.8189 -1.0620 -1.2884
-1.4997 -1.6839 -1.8261 -1.9823 -2.1225 -2.2030
-2.2955 -2.3863 -2.4629 -2.5555 -2.6294 -2.7201
-2.8417 -2.9689 -3.1419 -3.3486 -3.5637 -3.7881
-4.0125 -4.2473 -4.5035 -4.7354 -4.9646 -5.2208
-5.4499 -5.6809 -5.9184 -6.1392 -6.3795 -6.6011
-6.7919 -6.9752 -7.1426 -7.3250 -7.5073 -7.6719
-7.8393 -8.0151 -8.1919 -8.3649 -8.5323 -8.7100
-8.9073 -9.0663 -9.2421 -9.4432 -9.6040 -9.7985
-9.9790 -10.1408 -10.3101 -10.4232 -10.5747 -10.7300
-10.8487 -10.9750 -11.1003 -11.2060 -11.3098 -11.4407
-11.5361 -11.6511 -11.7493 -11.8326 -11.9653 -12.0476
-12.1496 -12.2543 -12.3488 -12.4834 -12.5526 -12.6368
-12.7574 -12.8304 -12.9136 -13.0006 -13.0820 -13.1661
-13.2316 -13.2783 -13.3242 -13.3335 -13.3008 -13.2550
-13.1764 -13.0633 -12.9220 -12.7612 -12.5555 -12.3048
-12.0542 -11.7764 -11.4744 -11.1546 -10.8328 -10.5009
-10.1511 -9.8303 -9.4881 -9.1448 -8.8007 -8.4341
-8.1124 -7.7683 -7.4288 -7.1005 -6.7517 -6.4216
-6.0868 -5.7586 -5.4181 -5.0646 -4.7018 -4.3558
-3.9883 -3.5786 -3.1952 -2.7959 -2.3854 -1.9720
-1.5502 -1.1425 -0.7422 -0.3364 0.0517 0.4267
0.7737 1.0786 1.3918 1.6696 1.9352 2.2129
2.4467 2.6880 2.9443 3.1724 3.4090 3.6456
3.8495 4.0496 4.2339 4.3807 4.5004 4.5874
4.6360 4.6725 4.6837 4.6697 4.6472 4.5827
4.5378 4.4714 4.3760 4.3134 4.2236 4.1441
4.0777 3.9823 3.8869 3.7878 3.6812 3.5708
3.4333 3.3183 3.2052 3.0733 2.9751 2.8713
2.7862 2.7058 2.6571 2.6197 2.5664 2.5561
2.5309 2.5421 2.5589 2.5459 2.5758 2.5776
2.5898 2.6104 2.6216 2.6609 2.6768 2.7104
2.7684 2.8273 2.8984 2.9760 3.0696 3.1612
3.2659 3.3688 3.4689 3.5886 3.7214 3.8401
3.9552 4.0824 4.1927 4.2741 4.3405 4.4134
4.4527 4.4770 4.5051 4.4901 4.5051 4.5116
4.4966 4.5238 4.5546 4.5902 4.6350 4.6940
4.7828 4.8819 4.9801 5.1045 5.2551 5.3991
5.5609 5.7554 5.9415 6.1257 6.3025 6.4792
6.6569 6.7962 6.9216 7.0459 7.1338 7.1881
7.2732 7.3228 7.3461 7.3835 7.3667 7.3564
7.3340 7.2863 7.2685 7.2283 7.1628 7.1039
7.0263 6.9534 6.8589 6.7429 6.6373 6.5026
6.3894 6.2697 6.1229 5.9939 5.8386 5.6899
5.5384 5.3504 5.1681 4.9839 4.7884 4.5770
4.3713 4.1600 3.9346 3.7176 3.5016 3.2912
3.0602 2.8357 2.6431 2.4486 2.2475 2.0511
1.8884 1.7416 1.5835 1.4507 1.3610 1.2759
1.2057 1.1421 1.0972 1.0795 1.0523 1.0336
1.0168 1.0093 1.0000 0.9757 0.9401 0.9018
0.8616 0.7905 0.7147 0.6324 0.5286 0.4370
0.3444 0.2303 0.1200 0.0208 -0.0643 -0.1438
-0.2363 -0.2971 -0.3598 -0.4168 -0.4505 -0.5178
-0.5655 -0.5992 -0.6581 -0.7152 -0.7647 -0.8423
-0.9349 -1.0294 -1.1332 -1.2426 -1.3717 -1.5073
-1.6522 -1.7934 -1.9449 -2.0759 -2.2087 -2.3443
-2.4322 -2.5322 -2.6042 -2.6557 -2.6996 -2.7052
-2.7211 -2.7314 -2.7071 -2.6688 -2.6248 -2.5631
-2.4948 -2.4013 -2.2994 -2.2217 -2.1142 -2.0169
-1.9272 -1.8439 -1.7860 -1.7205 -1.6765 -1.6410
-1.6101 -1.5681 -1.5269 -1.4914 -1.4549 -1.4334
-1.3941 -1.3754 -1.3586 -1.3062 -1.2838 -1.2604
-1.2146 -1.1893 -1.1538 -1.1033 -1.0603 -1.0098
-0.9424 -0.8685 -0.7797 -0.6815 -0.5889 -0.4842
-0.3832 -0.2700 -0.1531 -0.0381 0.0704 0.1620
0.2780 0.3743 0.4529 0.5370 0.6137 0.6913
0.7652 0.8316 0.8718 0.9279 0.9728 0.9962
1.0289 1.0186 1.0112 0.9906 0.9438 0.9036
0.8354 0.7605 0.6913 0.5894 0.4678 0.3715
0.2696 0.1424 0.0227 -0.1073 -0.2420 -0.3748
-0.5169 -0.6488 -0.7881 -0.9069 -1.0088 -1.1192
-1.1893 -1.2473 -1.2903 -1.3128 -1.3090 -1.2950
-1.2782 -1.2090 -1.1370 -1.0472 -0.9378 -0.8171
-0.6722 -0.5338 -0.3804 -0.2317 -0.1055 0.0171
0.1078 0.1835 0.2742 0.3266 0.3687 0.4192
0.4491 0.4641 0.4529 0.4510 0.4407 0.3958
0.3500 0.2911 0.2181 0.1461 0.0591 -0.0634
-0.1943 -0.3252 -0.4861 -0.6413 -0.7966 -0.9611
-1.1042 -1.2445 -1.3745 -1.4989 -1.6233 -1.7112
-1.7757 -1.8599 -1.9047 -1.9281 -1.9562 -1.9328
-1.9235 -1.9038 -1.8393 -1.7879 -1.7383 -1.6775
-1.6055 -1.5279 -1.4587 -1.3913 -1.3175 -1.2642
-1.2099 -1.1501 -1.1314 -1.0977 -1.0453 -1.0098
-0.9742 -0.9677 -0.9415 -0.8882 -0.8433 -0.7872
-0.7115 -0.6161 -0.5104 -0.3954 -0.2691 -0.1176
0.0198 0.1564 0.3182 0.4650 0.5931 0.7109
0.8194 0.9101 0.9700 1.0074 1.0392 1.0429
1.0280 1.0027 0.9606 0.9027 0.8213 0.7194
0.6099 0.5099 0.3799 0.2434 0.1162 -0.0232
-0.1354 -0.2486 -0.3720 -0.4749 -0.5796 -0.6750
-0.7507 -0.8359 -0.9107 -0.9874 -1.0631 -1.1248
-1.1875 -1.2464 -1.2941 -1.3549 -1.4241 -1.4577
-1.5185 -1.5943 -1.6476 -1.7290 -1.8028 -1.8805
-1.9590 -2.0320 -2.1124 -2.1470 -2.1835 -2.2199
-2.2311 -2.2190 -2.1937 -2.1535 -2.0974 -2.0563
-1.9656 -1.8627 -1.7710 -1.6495 -1.5223 -1.4063
-1.2997 -1.1707 -1.0668 -0.9733 -0.8705 -0.7919
-0.7021 -0.6498 -0.5955 -0.5188 -0.4730 -0.4141
-0.3814 -0.3580 -0.3084 -0.2878 -0.2841 -0.2682
-0.2504 -0.2411 -0.2430 -0.2289 -0.2121 -0.2224
-0.1990 -0.1728 -0.1766 -0.1663 -0.1345 -0.1176
-0.1074 -0.0793 -0.0671 -0.0541 -0.0400 -0.0138
0.0451 0.0872 0.1442 0.2134 0.2676 0.3630
0.4594 0.5398 0.6483 0.7586 0.8596 0.9662
1.0682 1.1645 1.2739 1.3768 1.4965 1.6283
1.7378 1.8640 2.0164 2.1922 2.3559 2.5252
2.7328 2.9404 3.1817 3.4473 3.6904 3.9354
4.1907 4.4460 4.7051 4.9585 5.1932 5.4233
5.6468 5.8628 6.0396 6.2042 6.3660 6.4838
6.5988 6.6811 6.7363 6.7774 6.7924 6.7980
6.7597 6.7138 6.6503 6.5577 6.4529 6.3473
6.2500 6.1181 5.9732 5.8544 5.7244 5.5729
5.4579 5.3373 5.1642 5.0053 4.8528 4.6798
4.4788 4.2590 4.0374 3.7942 3.5277 3.2593
2.9638 2.6224 2.2895 1.9425 1.5778 1.2234
0.8680 0.5351 0.2153 -0.1055 -0.4010 -0.7003
-0.9921 -1.2277 -1.4643 -1.7047 -1.9142 -2.1143
-2.3135 -2.5005 -2.6726 -2.8475 -3.0280 -3.2206
-3.3936 -3.5619 -3.7424 -3.9145 -4.0987 -4.2689
-4.4457 -4.6383 -4.8207 -5.0040 -5.1723 -5.3510
-5.5324 -5.6932 -5.8401 -5.9887 -6.1244 -6.2422
-6.3843 -6.5050 -6.6116 -6.7360 -6.8398 -6.9361
-7.0362 -7.1119 -7.1764 -7.2353 -7.2606 -7.2784
-7.2774 -7.2830 -7.2634 -7.1979 -7.1531 -7.1007
-7.0277 -6.9352 -6.8342 -6.7079 -6.5910 -6.4797
-6.3460 -6.2038 -6.0383 -5.8962 -5.7559 -5.6016
-5.4529 -5.3229 -5.1985 -5.0760 -4.9647 -4.8609
-4.7786 -4.6973 -4.6318 -4.5869 -4.5411 -4.5074
-4.4625 -4.4148 -4.3541 -4.2690 -4.1782 -4.0857
-3.9762 -3.8276 -3.6695 -3.4825 -3.2823 -3.0803
-2.8624 -2.6399 -2.3874 -2.1396 -1.9020 -1.6766
-1.4672 -1.2530 -1.0585 -0.8808 -0.7134 -0.5694
-0.4347 -0.3038 -0.1616 -0.0260 0.0834 0.1956
0.3078 0.4257 0.5266 0.6351 0.7520 0.8334
0.9391 1.0401 1.1149 1.1916 1.2486 1.3066
1.3477 1.3730 1.3861 1.3917 1.4057 1.3889
1.3674 1.3496 1.3356 1.3094 1.2682 1.2467
1.2215 1.1757 1.1364 1.1252 1.0990 1.0821
1.0747 1.0578 1.0532 1.0251 1.0120 0.9924
0.9587 0.9456 0.8867 0.8465 0.8137 0.7548
0.7333 0.7034 0.7015 0.7193 0.7408 0.7726
0.8212 0.9035 0.9924 1.1111 1.2262 1.3795
1.5235 1.6582 1.8415 1.9799 2.1417 2.3016
2.4325 2.5784 2.6972 2.7954 2.8767 2.9562
3.0114 3.0516 3.0834 3.1190 3.1498 3.1283
3.1274 3.1405 3.1152 3.0862 3.0694 3.0254
2.9880 2.9459 2.8693 2.8375 2.7926 2.7393
2.7150 2.6747 2.6429 2.6140 2.5868 2.5681
2.5485 2.5382 2.5588 2.5569 2.5429 2.5410
2.5578 2.5878 2.5934 2.6196 2.6588 2.6991
2.7290 2.7842 2.8449 2.8917 2.9646 3.0151
3.0769 3.1442 3.2069 3.2602 3.3022 3.3518
3.4032 3.4500 3.4696 3.5070 3.5473 3.5688
3.5837 3.5734 3.5725 3.5753 3.5426 3.5248
3.5033 3.4406 3.3845 3.3022 3.2097 3.1152
2.9861 2.8833 2.7636 2.6046 2.4540 2.2979
2.1155 1.9210 1.7414 1.5441 1.3365 1.1392
0.9390 0.7529 0.5659 0.3845 0.2255 0.0796
-0.0523 -0.1897 -0.3141 -0.4207 -0.5320 -0.6386
-0.7583 -0.8911 -1.0230 -1.1707 -1.3381 -1.5214
-1.7103 -1.9114 -2.1125 -2.3098 -2.5043 -2.6811
-2.8681 -3.0308 -3.1636 -3.2889 -3.4058 -3.5106
-3.5835 -3.6387 -3.6855 -3.7144 -3.7135 -3.7079
-3.6929 -3.6621 -3.6303 -3.5901 -3.5564 -3.4975
-3.4386 -3.4040 -3.3722 -3.3114 -3.2403 -3.2113
-3.1505 -3.0795 -3.0205 -2.9382 -2.8560 -2.7540
-2.6409 -2.5268 -2.4117 -2.3061 -2.1882 -2.0639
-1.9488 -1.8329 -1.7225 -1.5907 -1.4672 -1.3625
-1.2259 -1.0828 -0.9594 -0.8303 -0.6873 -0.5470
-0.4020 -0.2543 -0.1075 0.0291 0.1469 0.2863
0.4396 0.5659 0.6790 0.8034 0.9156 1.0381
1.1681 1.2888 1.4244 1.5497 1.6872 1.8302
1.9715 2.1145 2.2539 2.4054 2.5522 2.6906
2.8215 2.9459 3.0628 3.1919 3.3003 3.3892
3.4836 3.5416 3.5706 3.5856 3.5837 3.5454
3.4939 3.4200 3.3293 3.2209 3.0525 2.9048
2.7448 2.5447 2.3642 2.1585 1.9453 1.7582
1.5497 1.3337 1.1232 0.9128 0.7230 0.5144
0.3021 0.1226 -0.0757 -0.2786 -0.4404 -0.6050
-0.7714 -0.9201 -1.0427 -1.1502 -1.2793 -1.3681
-1.4392 -1.5018 -1.5430 -1.5851 -1.6010 -1.6131
-1.6131 -1.6010 -1.5804 -1.5458 -1.5112 -1.4691
-1.4251 -1.3840 -1.3307 -1.2727 -1.2101 -1.1511
-1.1034 -1.0333 -0.9800 -0.9435 -0.9061 -0.8865
-0.8538 -0.8294 -0.8248 -0.8182 -0.8126 -0.8154
-0.8229 -0.8453 -0.8781 -0.8986 -0.9351 -0.9744
-1.0165 -1.0782 -1.1334 -1.2222 -1.3008 -1.3728
-1.4663 -1.5355 -1.5916 -1.6533 -1.7057 -1.7282
-1.7553 -1.7674 -1.7553 -1.7543 -1.7394 -1.7029
-1.6533 -1.6056 -1.5467 -1.4859 -1.4205 -1.3541
-1.2905 -1.2138 -1.1736 -1.1175 -1.0511 -1.0184
-0.9407 -0.8846 -0.8332 -0.7322 -0.6564 -0.5741
-0.4731 -0.3619 -0.2337 -0.1131 0.0113 0.1525
0.2993 0.4405 0.5827 0.7304 0.8791 1.0409
1.1924 1.3411 1.5066 1.6450 1.8050 1.9602
2.0827 2.2314 2.3605 2.4792 2.6101 2.6999
2.7981 2.9038 2.9636 3.0572 3.1367 3.1843
3.2685 3.3274 3.3667 3.4097 3.4415 3.4743
3.4911 3.4967 3.5135 3.5173 3.4948 3.4836
3.4714 3.4630 3.4612 3.4097 3.3611 3.3415
3.2928 3.2507 3.2068 3.1628 3.1133 3.0431
2.9945 2.9328 2.8467 2.7663 2.6887 2.5933
2.4979 2.4007 2.2894 2.2015 2.0808 1.9508
1.8405 1.6871 1.5553 1.4038 1.2279 1.0774
0.8885 0.6921 0.5041 0.3002 0.0749 -0.1328
-0.3469 -0.5798 -0.7855 -1.0118 -1.2222 -1.4336
-1.6674 -1.8628 -2.0583 -2.2809 -2.4932 -2.6849
-2.8626 -3.0346 -3.2161 -3.3732 -3.5228 -3.6556
-3.7603 -3.8567 -3.9165 -3.9549 -3.9605 -3.9539
-3.9212 -3.8539 -3.7828 -3.6799 -3.5705 -3.4377
-3.2946 -3.1684 -3.0300 -2.8869 -2.7438 -2.6157
-2.4829 -2.3463 -2.2089 -2.0873 -1.9536 -1.8002
-1.6983 -1.5393 -1.3775 -1.2615 -1.0941 -0.9623
-0.8145 -0.6462 -0.4947 -0.3170 -0.1468 0.0346
0.2282 0.4087 0.5948 0.7987 0.9820 1.1802
1.3906 1.5618 1.7516 1.9415 2.0920 2.2379
2.3558 2.4670 2.5924 2.6803 2.7410 2.8018
2.8430 2.8673 2.8766 2.8729 2.8785 2.8710
2.8636 2.8589 2.8383 2.8261 2.8205 2.7915
2.7626 2.7382 2.6774 2.6195 2.5456 2.4362
2.3268 2.2089 2.0976 1.9639 1.8348 1.7077
1.5655 1.4654 1.3420 1.2008 1.0895 0.9745
0.8510 0.7238 0.5939 0.4592 0.3227 0.1814
0.0318 -0.1066 -0.2403 -0.3834 -0.5097 -0.6443
-0.7706 -0.8856 -1.0109 -1.1072 -1.2120 -1.3055
-1.3878 -1.4720 -1.5384 -1.6066 -1.6646 -1.7282
-1.7909 -1.8432 -1.8900 -1.9237 -1.9396 -1.9629
-1.9788 -1.9714 -1.9592 -1.9237 -1.8872 -1.8488
-1.7909 -1.7357 -1.7039 -1.6712 -1.6169 -1.5758
-1.5543 -1.5309 -1.5281 -1.5356 -1.5346 -1.5449
-1.5711 -1.6076 -1.6487 -1.6955 -1.7413 -1.8386
-1.9134 -1.9770 -2.0808 -2.1490 -2.2529 -2.3370
-2.4100 -2.5082 -2.5858 -2.6840 -2.7672 -2.8589
-2.9561 -3.0496 -3.1357 -3.2086 -3.3143 -3.4059
-3.4845 -3.5752 -3.6444 -3.7230 -3.7940 -3.8268
-3.8717 -3.9016 -3.9268 -3.9530 -3.9343 -3.9119
-3.8857 -3.8296 -3.7819 -3.7108 -3.6154 -3.5387
-3.4368 -3.3339 -3.2264 -3.1095 -3.0132 -2.9112
-2.8196 -2.7251 -2.6241 -2.5362 -2.4642 -2.3950
-2.3183 -2.2482 -2.1837 -2.1322 -2.0686 -2.0191
-1.9835 -1.9190 -1.8704 -1.8199 -1.7357 -1.6684
-1.5795 -1.4823 -1.4084 -1.2821 -1.1578 -1.0287
-0.8772 -0.7388 -0.5901 -0.4283 -0.2581 -0.0973
0.0898 0.2777 0.4657 0.6602 0.8276 1.0109
1.1764 1.3317 1.4766 1.5870 1.7123 1.8170
1.8984 1.9957 2.0686 2.1182 2.1827 2.2313
2.2800 2.3389 2.3716 2.4202 2.4960 2.5409
2.5773 2.6297 2.6587 2.6933 2.7326 2.7466
2.7606 2.7513 2.7279 2.7111 2.6559 2.5970
2.5081 2.3791 2.2631 2.0836 1.8975 1.7179
1.4953 1.2643 1.0053 0.7453 0.4956 0.2590
0.0149 -0.2104 -0.4209 -0.6425 -0.8155 -1.0007
-1.1840 -1.3317 -1.4963 -1.6516 -1.7881 -1.9143
-2.0275 -2.1444 -2.2538 -2.3548 -2.4689 -2.5671
-2.6513 -2.7485 -2.8374 -2.9169 -2.9898 -3.0422
-3.0927 -3.1432 -3.1628 -3.1927 -3.2208 -3.2330
-3.2563 -3.2610 -3.2535 -3.2386 -3.2208 -3.1881
-3.1572 -3.1198 -3.0618 -3.0197 -2.9487 -2.8673
-2.7831 -2.6700 -2.5839 -2.4764 -2.3427 -2.2482
-2.1435 -2.0397 -1.9658 -1.8826 -1.8349 -1.7918
-1.7385 -1.7376 -1.7619 -1.7759 -1.7947 -1.8395
-1.8910 -1.9555 -2.0163 -2.0500 -2.0920 -2.1173
-2.1266 -2.1145 -2.0855 -2.0537 -1.9845 -1.8919
-1.7741 -1.6413 -1.4870 -1.3121 -1.1307 -0.9231
-0.7127 -0.4742 -0.2423 -0.0253 0.2272 0.4638
0.6780 0.8921 1.1203 1.3242 1.5178 1.7188
1.9021 2.1032 2.2706 2.4165 2.5988 2.7756
2.9252 3.0683 3.2170 3.3414 3.4704 3.5780
3.6705 3.7996 3.9053 3.9988 4.0998 4.1952
4.2850 4.3822 4.4935 4.5870 4.6787 4.7834
4.9069 5.0209 5.1313 5.2613 5.3744 5.4941
5.6054 5.6831 5.7756 5.8579 5.9056 5.9449
5.9945 6.0048 6.0048 6.0160 5.9926 5.9917
5.9543 5.9038 5.8869 5.8327 5.7850 5.7270
5.6466 5.5849 5.5287 5.4474 5.3810 5.3137
5.2332 5.1762 5.0948 5.0415 4.9948 4.9255
4.8732 4.8161 4.7684 4.7105 4.6384 4.5795
4.5234 4.4402 4.3579 4.2924 4.2073 4.1316
4.0549 3.9745 3.9118 3.8463 3.7958 3.7584
3.7154 3.6948 3.6696 3.6593 3.6789 3.6743
3.6818 3.6930 3.6799 3.6696 3.6640 3.6528
3.6200 3.5705 3.5228 3.4797 3.4059 3.2993
3.2020 3.1057 2.9953 2.8747 2.7363 2.5866
2.4473 2.3024 2.1340 1.9694 1.8114 1.6533
1.5149 1.3709 1.2147 1.0866 0.9716 0.8509
0.7443 0.6611 0.5676 0.4881 0.4301 0.3310
0.2636 0.1907 0.0850 0.0074 -0.1001 -0.2395
-0.3704 -0.4976 -0.6528 -0.7978 -0.9493 -1.1055
-1.2392 -1.3851 -1.5038 -1.6282 -1.7489 -1.8443
-1.9312 -1.9976 -2.0556 -2.0790 -2.0893 -2.0958
-2.0799 -2.0519 -2.0313 -2.0163 -1.9799 -1.9471
-1.9181 -1.8873 -1.8732 -1.8386 -1.8040 -1.8087
-1.8022 -1.8012 -1.8153 -1.8115 -1.8377 -1.8845
-1.9172 -1.9705 -2.0332 -2.0846 -2.1547 -2.2239
-2.3147 -2.4016 -2.4596 -2.5662 -2.6495 -2.6981
-2.7879 -2.8589 -2.9179 -2.9786 -3.0207 -3.0665
-3.1105 -3.1442 -3.1647 -3.1984 -3.2255 -3.2517
-3.2788 -3.2854 -3.3200 -3.3471 -3.3658 -3.4247
-3.4724 -3.5211 -3.5884 -3.6585 -3.7567 -3.8549
-3.9587 -4.0822 -4.1906 -4.3057 -4.4272 -4.5423
-4.6769 -4.8107 -4.9220 -5.0351 -5.1492 -5.2493
-5.3390 -5.3924 -5.4494 -5.4887 -5.4840 -5.4934
-5.4737 -5.4466 -5.4017 -5.3465 -5.3222 -5.2829
-5.2324 -5.1876 -5.1427 -5.0903 -5.0482 -4.9977
-4.9575 -4.9192 -4.8621 -4.8182 -4.7798 -4.7303
-4.6508 -4.6068 -4.5572 -4.4890 -4.4460 -4.3506
-4.2701 -4.2000 -4.0981 -4.0027 -3.8923 -3.7736
-3.6520 -3.5276 -3.3817 -3.2312 -3.0703 -2.9113
-2.7533 -2.5719 -2.4213 -2.2604 -2.0874 -1.9144
-1.7218 -1.5497 -1.3664 -1.1738 -0.9867 -0.7959
-0.6052 -0.4163 -0.2311 -0.0534 0.1084 0.2758
0.4179 0.5470 0.6938 0.8088 0.9154 1.0277
1.1137 1.1922 1.2615 1.3148 1.3774 1.4242
1.4476 1.4822 1.5027 1.4971 1.4896 1.4775
1.4756 1.4850 1.4653 1.4419 1.4476 1.4363
1.4260 1.4148 1.4008 1.4214 1.4186 1.4232
1.4532 1.4335 1.4475 1.4924 1.5065 1.5448
1.5841 1.6308 1.7122 1.7777 1.8300 1.9030
1.9656 2.0461 2.1368 2.2125 2.3107 2.3762
2.4622 2.5613 2.6324 2.7157 2.7849 2.8606
2.9298 3.0158 3.0832 3.1552 3.2655 3.3375
3.4273 3.5199 3.6106 3.7191 3.7948 3.8856
3.9660 4.0277 4.1109 4.1839 4.2428 4.2868
4.3157 4.3560 4.3999 4.4167 4.4280 4.4598
4.4672 4.4663 4.4729 4.4429 4.4252 4.3896
4.3251 4.2839 4.2119 4.1371 4.0436 3.9426
3.8453 3.7182 3.6041 3.4909 3.3880 3.2665
3.1346 3.0280 2.9092 2.7858 2.6492 2.5230
2.3921 2.2593 2.1489 1.9927 1.8581 1.7524
1.6215 1.5055 1.4026 1.3194 1.2390 1.1745
1.1071 1.0604 1.0398 0.9837 0.9500 0.9163
0.8612 0.8228 0.8004 0.7583 0.6975 0.6451
0.5778 0.5021 0.4001 0.2954 0.1972 0.0822
-0.0357 -0.1675 -0.2807 -0.4013 -0.5444 -0.6735
-0.8100 -0.9232 -1.0419 -1.1766 -1.2636 -1.3674
-1.4843 -1.5769 -1.6694 -1.7648 -1.8537 -1.9416
-2.0360 -2.1090 -2.1960 -2.2895 -2.3521 -2.4344
-2.5111 -2.5859 -2.6720 -2.7243 -2.7832 -2.8478
-2.8992 -2.9553 -3.0086 -3.0376 -3.0797 -3.1339
-3.1592 -3.2069 -3.2508 -3.2864 -3.3350 -3.3621
-3.4005 -3.4416 -3.4781 -3.5286 -3.5697 -3.6071
-3.6427 -3.6661 -3.6801 -3.7072 -3.7437 -3.7727
-3.8026 -3.8185 -3.8550 -3.8849 -3.8933 -3.9158
-3.9111 -3.9186 -3.9354 -3.9279 -3.9223 -3.9102
-3.8952 -3.8765 -3.8419 -3.7961 -3.7437 -3.6764
-3.6015 -3.5249 -3.4192 -3.3088 -3.2162 -3.0863
-2.9581 -2.8422 -2.7262 -2.6299 -2.4905 -2.3802
-2.2942 -2.1735 -2.0865 -1.9893 -1.8911 -1.8266
-1.7433 -1.6704 -1.6124 -1.5385 -1.4759 -1.4254
-1.3777 -1.3375 -1.3132 -1.2935 -1.2655 -1.2365
-1.2168 -1.2037 -1.1766 -1.1551 -1.1355 -1.0999
-1.0934 -1.0803 -1.0382 -1.0139 -0.9821 -0.9512
-0.9157 -0.8689 -0.8587 -0.8287 -0.7764 -0.7427
-0.6959 -0.6333 -0.5865 -0.5388 -0.4734 -0.4275
-0.3527 -0.2536 -0.1938 -0.1058 -0.0151 0.0587
0.1560 0.2402 0.3309 0.4450 0.5413 0.6311
0.7293 0.8284 0.9257 1.0108 1.0996 1.2062
1.3100 1.3998 1.4961 1.5981 1.7028 1.8225
1.9235 2.0320 2.1601 2.2695 2.3864 2.4958
2.6109 2.7193 2.7970 2.9101 3.0008 3.0775
3.1738 3.2608 3.3506 3.4189 3.5096 3.5825
3.6573 3.7546 3.8182 3.9051 3.9781 4.0520
4.1389 4.2072 4.3148 4.4270 4.5252 4.6215
4.7272 4.8525 4.9507 5.0423 5.1330 5.2060
5.2883 5.3425 5.3734 5.4183 5.4388 5.4332
5.4388 5.4342 5.3986 5.3799 5.3696 5.3219
5.2920 5.2555 5.1938 5.1545 5.0900 5.0189
4.9572 4.8787 4.7917 4.6898 4.5710 4.4447
4.3101 4.1586 4.0117 3.8406 3.6321 3.4403
3.2468 3.0186 2.7923 2.5669 2.3378 2.0871
1.8262 1.5896 1.3324 1.0799 0.8274 0.5703
0.3421 0.1167 -0.1105 -0.3312 -0.5230 -0.7053
-0.8746 -1.0270 -1.1804 -1.3123 -1.4553 -1.5788
-1.6648 -1.7714 -1.8827 -1.9800 -2.0838 -2.1764
-2.2596 -2.3428 -2.4074 -2.4700 -2.5261 -2.5626
-2.6000 -2.6346 -2.6655 -2.6842 -2.6917 -2.7076
-2.7076 -2.7019 -2.7122 -2.7104 -2.7150 -2.7160
-2.7057 -2.7272 -2.7384 -2.7347 -2.7422 -2.7450
-2.7524 -2.7375 -2.7197 -2.7328 -2.7160 -2.6767
-2.6561 -2.6178 -2.5888 -2.5710 -2.5186 -2.4681
-2.4401 -2.4036 -2.3774 -2.3709 -2.3494 -2.3475
-2.3587 -2.3513 -2.3559 -2.3672 -2.3700 -2.3653
-2.3615 -2.3653 -2.3597 -2.3400 -2.3054 -2.2671
-2.2147 -2.1642 -2.1034 -2.0230 -1.9604 -1.8659
-1.7892 -1.7209 -1.6190 -1.5545 -1.4778 -1.4002
-1.3459 -1.2655 -1.2010 -1.1430 -1.0682 -1.0037
-0.9373 -0.8522 -0.7661 -0.6969 -0.6230 -0.5566
-0.4884 -0.4248 -0.3892 -0.3369 -0.3041 -0.2826
-0.2480 -0.2518 -0.2321 -0.2060 -0.2284 -0.2368
-0.2406 -0.2415 -0.2247 -0.2275 -0.2228 -0.1985
-0.1947 -0.1723 -0.1339 -0.0947 -0.0488 0.0045
0.0709 0.1307 0.1962 0.2738 0.3673 0.4365
0.5141 0.5927 0.6591 0.7470 0.8153 0.8901
0.9658 1.0219 1.0603 1.1080 1.1398 1.1762
1.2426 1.2613 1.2987 1.3418 1.3764 1.4353
1.4736 1.5073 1.5653 1.6242 1.6831 1.7626
1.8206 1.8720 1.9478 2.0207 2.0871 2.1526
2.2274 2.2854 2.3377 2.3985 2.4415 2.4780
2.5192 2.5622 2.5865 2.6043 2.6183 2.6164
2.6033 2.5743 2.5659 2.5425 2.4902 2.4668
2.4303 2.3779 2.3293 2.2891 2.2470 2.2059
2.1834 2.1769 2.1909 2.1862 2.2059 2.2592
2.3143 2.3929 2.4584 2.5379 2.6426 2.7333
2.8250 2.9390 3.0307 3.1083 3.2009 3.2832
3.3730 3.4440 3.5020 3.5806 3.6376 3.6947
3.7555 3.8088 3.8658 3.9013 3.9275 3.9462
3.9668 3.9827 3.9818 3.9621 3.9406 3.9107
3.8565 3.8134 3.7508 3.6638 3.5787 3.4973
3.4160 3.3122 3.2196 3.1476 3.0559 2.9830
2.9157 2.8399 2.7782 2.7043 2.6304 2.5659
2.5070 2.4387 2.3686 2.2910 2.2049 2.1236
2.0244 1.9141 1.8140 1.6971 1.5568 1.4325
1.2894 1.1528 1.0303 0.8882 0.7582 0.6198
0.4926 0.3645 0.2335 0.1195 -0.0133 -0.1461
-0.2715 -0.3968 -0.5417 -0.6726 -0.7924 -0.9382
-1.0776 -1.2338 -1.3853 -1.5124 -1.6611 -1.8042
-1.9314 -2.0782 -2.2185 -2.3513 -2.4878 -2.6319
-2.7834 -2.9133 -3.0471 -3.1827 -3.3155 -3.4520
-3.5951 -3.7298 -3.8635 -4.0159 -4.1525 -4.2909
-4.4283 -4.5537 -4.6780 -4.7912 -4.9034 -4.9913
-5.0624 -5.1288 -5.1774 -5.2055 -5.2130 -5.2195
-5.2083 -5.1737 -5.1269 -5.0690 -5.0166 -4.9577
-4.8698 -4.7781 -4.6967 -4.6014 -4.5097 -4.4181
-4.3002 -4.2048 -4.1085 -3.9935 -3.8747 -3.7541
-3.6606 -3.5343 -3.4090 -3.3136 -3.1808 -3.0714
-2.9573 -2.8198 -2.7132 -2.5917 -2.4701 -2.3616
-2.2391 -2.1147 -2.0034 -1.8828 -1.7453 -1.6144
-1.4620 -1.2992 -1.1505 -1.0009 -0.8494 -0.6932
-0.5436 -0.4024 -0.2780 -0.1527 -0.0489 0.0353
0.1288 0.2036 0.2719 0.3186 0.3607 0.4234
0.4664 0.4972 0.5253 0.5833 0.6403 0.6890
0.7656 0.8208 0.8919 0.9882 1.0640 1.1435
1.2379 1.3183 1.3913 1.4782 1.5437 1.5858
1.6466 1.6924 1.7046 1.7298 1.7466 1.7738
1.7812 1.7551 1.7597 1.7074 1.6634 1.6531
1.5951 1.5381 1.4867 1.4343 1.3782 1.3417
1.3024 1.2566 1.2332 1.2070 1.1958 1.1818
1.1893 1.2145 1.2229 1.2650 1.3108 1.3389
1.3819 1.4249 1.4642 1.5063 1.5372 1.5699
1.5905 1.5848 1.5774 1.5615 1.5409 1.5072
1.4530 1.4025 1.3492 1.2753 1.1996 1.1462
1.0714 0.9779 0.8937 0.8049 0.7170 0.6085
0.5113 0.4243 0.3252 0.2447 0.1409 0.0399
-0.0499 -0.1499 -0.2509 -0.3547 -0.4557 -0.5651
-0.6587 -0.7634 -0.8541 -0.9196 -1.0103 -1.0758
-1.1197 -1.1842 -1.2291 -1.2534 -1.2712 -1.2684
-1.2488 -1.2301 -1.2207 -1.1861 -1.1478 -1.1094
-1.0664 -1.0234 -0.9944 -0.9832 -0.9430 -0.9112
-0.8999 -0.8906 -0.8784 -0.8719 -0.8812 -0.8925
-0.9130 -0.9289 -0.9561 -0.9897 -1.0271 -1.0739
-1.1029 -1.1422 -1.1627 -1.1609 -1.1749 -1.1749
-1.1683 -1.1337 -1.0945 -1.0636 -1.0159 -0.9766
-0.9177 -0.8672 -0.8111 -0.7513 -0.7120 -0.6521
-0.6044 -0.5652 -0.5352 -0.5044 -0.4623 -0.4333
-0.3875 -0.3557 -0.3473 -0.3276 -0.3052 -0.2668
-0.2322 -0.2201 -0.1836 -0.1434 -0.1191 -0.0873
-0.0527 -0.0069 0.0315 0.0614 0.0895 0.1213
0.1465 0.1465 0.1736 0.1774 0.1465 0.1559
0.1175 0.0586 0.0287 -0.0368 -0.0882 -0.1331
-0.1967 -0.2388 -0.2921 -0.3463 -0.3735 -0.4314
-0.4688 -0.4707 -0.5072 -0.5231 -0.5390 -0.5661
-0.5726 -0.5698 -0.5670 -0.5596 -0.5586 -0.5736
-0.5745 -0.5951 -0.6007 -0.6157 -0.6493 -0.6409
-0.6737 -0.7083 -0.7260 -0.7803 -0.8233 -0.8728
-0.9439 -1.0075 -1.0777 -1.1478 -1.2198 -1.3152
-1.4050 -1.4760 -1.5658 -1.6659 -1.7304 -1.7987
-1.8744 -1.9259 -1.9913 -2.0297 -2.0689 -2.1101
-2.1223 -2.1372 -2.1288 -2.1213 -2.0905 -2.0549
-2.0222 -1.9801 -1.9333 -1.8716 -1.8398 -1.7725
-1.7192 -1.7014 -1.6528 -1.5986 -1.5350 -1.5041
-1.4676 -1.4087 -1.3732 -1.3264 -1.2666 -1.2217
-1.1759 -1.0973 -1.0384 -0.9785 -0.8785 -0.7896
-0.6970 -0.5970 -0.4969 -0.3679 -0.2425 -0.1415
-0.0387 0.0548 0.1558 0.2437 0.3158 0.4027
0.4504 0.4888 0.5337 0.5626 0.5785 0.5851
0.5795 0.5561 0.5486 0.5112 0.4616 0.4224
0.3719 0.3419 0.2718 0.2260 0.1932 0.1194
0.0885 0.0520 0.0174 -0.0181 -0.0415 -0.0490
-0.0798 -0.0901 -0.0892 -0.0957 -0.1041 -0.0939
-0.0808 -0.0686 -0.0518 -0.0396 -0.0284 -0.0144
-0.0060 0.0109 0.0240 0.0277 0.0623 0.0913
0.1137 0.1418 0.1858 0.2316 0.2681 0.3298
0.3896 0.4588 0.5084 0.5439 0.6113 0.6262
0.6515 0.6870 0.6702 0.6954 0.7038 0.6936
0.6945 0.6664 0.6487 0.6309 0.6028 0.5813
0.5617 0.5355 0.5121 0.4981 0.4869 0.4887
0.4878 0.5065 0.5449 0.5542 0.5963 0.6402
0.6748 0.7497 0.8263 0.8862 0.9535 1.0386
1.1163 1.2060 1.2902 1.3613 1.4445 1.5231
1.6007 1.6559 1.7176 1.7915 1.8401 1.8962
1.9532 1.9878 2.0252 2.0711 2.1094 2.1253
2.1431 2.1524 2.1590 2.1861 2.1889 2.1842
2.1618 2.1412 2.1449 2.1197 2.0888 2.0608
2.0140 1.9579 1.9121 1.8588 1.8073 1.7737
1.7316 1.6820 1.6259 1.5820 1.5343 1.4697
1.4230 1.3874 1.3491 1.2986 1.2500 1.1967
1.1536 1.1312 1.0957 1.0723 1.0480 1.0339
1.0367 1.0134 1.0068 0.9993 0.9881 1.0115
1.0255 1.0377 1.0489 1.0592 1.0816 1.0835
1.0966 1.1041 1.1097 1.1247 1.0975 1.0667
1.0396 1.0208 0.9816 0.9460 0.9329 0.8871
0.8703 0.8469 0.8114 0.8029 0.7880 0.7833
0.7899 0.7908 0.7927 0.7786 0.7637 0.7768
0.7637 0.7281 0.7216 0.6982 0.6430 0.6150
0.6094 0.5822 0.5635 0.5374 0.5027 0.4840
0.4700 0.4579 0.4513 0.4635 0.4700 0.4887
0.5196 0.5345 0.5626 0.6066 0.6514 0.6991
0.7281 0.7683 0.8254 0.8619 0.9124 0.9591
1.0087 1.0601 1.0957 1.1284 1.1340 1.1499
1.1536 1.1405 1.1359 1.1228 1.1097 1.0807
1.0414 0.9946 0.9264 0.8581 0.7824 0.6888
0.5897 0.4831 0.3681 0.2521 0.1333 -0.0266
-0.1706 -0.2959 -0.4540 -0.6045 -0.7654 -0.9234
-1.0917 -1.2769 -1.4322 -1.5930 -1.7585 -1.9091
-2.0690 -2.2289 -2.3701 -2.5216 -2.6890 -2.8237
-2.9565 -3.1052 -3.2268 -3.3437 -3.4409 -3.5373
-3.6336 -3.7000 -3.7804 -3.8384 -3.8758 -3.9319
-3.9665 -3.9899 -4.0264 -4.0413 -4.0376 -4.0432
-4.0385 -4.0385 -4.0366 -4.0151 -4.0077 -3.9946
-3.9684 -3.9478 -3.9067 -3.8786 -3.8562 -3.8029
-3.7617 -3.7196 -3.6616 -3.6009 -3.5251 -3.4475
-3.3652 -3.2829 -3.2137 -3.1361 -3.0472 -2.9771
-2.9135 -2.8265 -2.7564 -2.6834 -2.6105 -2.5637
-2.4917 -2.4281 -2.3973 -2.3421 -2.2953 -2.2748
-2.2448 -2.2177 -2.2000 -2.1943 -2.1719 -2.1438
-2.1448 -2.1270 -2.0980 -2.0615 -2.0167 -1.9568
-1.8811 -1.8006 -1.6968 -1.5912 -1.4789 -1.3714
-1.2554 -1.1301 -1.0282 -0.9113 -0.7972 -0.7027
-0.6036 -0.5026 -0.4156 -0.3277 -0.2436 -0.1734
-0.0874 -0.0210 0.0482 0.1268 0.1717 0.2250
0.2792 0.3400 0.3980 0.4157 0.4419 0.4756
0.4915 0.5242 0.5570 0.5831 0.6056 0.6131
0.6449 0.6701 0.6879 0.7150 0.7197 0.7505
0.7814 0.8057 0.8338 0.8487 0.8946 0.9198
0.9292 0.9479 0.9563 0.9871 0.9965 0.9825
0.9993 0.9984 0.9890 1.0096 1.0068 0.9984
0.9993 1.0068 1.0208 1.0208 1.0311 1.0601
1.0629 1.0666 1.1003 1.1218 1.1723 1.2293
1.2752 1.3219 1.3771 1.4538 1.5118 1.5623
1.6324 1.6997 1.7502 1.8325 1.9130 1.9794
2.0663 2.1430 2.2122 2.2824 2.3478 2.4170
2.4881 2.5489 2.6087 2.6639 2.7144 2.7668
2.7911 2.8173 2.8481 2.8584 2.8762 2.8883
2.8912 2.8968 2.8827 2.8603 2.8603 2.8425
2.8023 2.7799 2.7621 2.7368 2.7050 2.6770
2.6574 2.6358 2.6031 2.5694 2.5535 2.5330
2.5171 2.5096 2.4881 2.4871 2.4675 2.4572
2.4750 2.4610 2.4525 2.4357 2.4310 2.4376
2.4123 2.3936 2.4030 2.4020 2.3871 2.3899
2.3824 2.3899 2.3805 2.3628 2.3581 2.3338
2.3123 2.2758 2.2318 2.1869 2.1346 2.0747
1.9943 1.9232 1.8447 1.7708 1.7007 1.5950
1.5015 1.4248 1.3425 1.2695 1.2022 1.1377
1.0834 1.0339 0.9927 0.9628 0.9319 0.9179
0.8983 0.8618 0.8272 0.8010 0.7758 0.7346
0.6832 0.6402 0.5766 0.5027 0.4512 0.3736
0.2997 0.2399 0.1445 0.0575 -0.0266 -0.0893
-0.1417 -0.2324 -0.3016 -0.3652 -0.4381 -0.4970
-0.5503 -0.6036 -0.6682 -0.7046 -0.7449 -0.8019
-0.8272 -0.8627 -0.8973 -0.9225 -0.9590 -0.9889
-1.0235 -1.0666 -1.0993 -1.1189 -1.1489 -1.1825
-1.2115 -1.2396 -1.2555 -1.2564 -1.2648 -1.2807
-1.2873 -1.2976 -1.2976 -1.3078 -1.3209 -1.3256
-1.3490 -1.3602 -1.3724 -1.3827 -1.3929 -1.4070
-1.4042 -1.4023 -1.3901 -1.3892 -1.3733 -1.3490
-1.3612 -1.3546 -1.3191 -1.3172 -1.3191 -1.2891
-1.2910 -1.2882 -1.2817 -1.3107 -1.3284 -1.3527
-1.3976 -1.4388 -1.4809 -1.5463 -1.6015 -1.6473
-1.7193 -1.7885 -1.8596 -1.8970 -1.9307 -2.0092
-2.0448 -2.0728 -2.0943 -2.1037 -2.1233 -2.1000
-2.0813 -2.0644 -2.0130 -1.9578 -1.8895 -1.8231
-1.7465 -1.6174 -1.5014 -1.4210 -1.3041 -1.1638
-1.0301 -0.9113 -0.7907 -0.6551 -0.5186 -0.3970
-0.2754 -0.1426 -0.0295 0.0725 0.1651 0.2604
0.3661 0.4419 0.5176 0.5859 0.6504 0.7159
0.7654 0.8234 0.8786 0.9450 0.9927 1.0338
1.0984 1.1423 1.1769 1.2143 1.2573 1.2891
1.3265 1.3518 1.3611 1.3705 1.3499 1.3265
1.3078 1.2994 1.2601 1.2115 1.1732 1.0937
1.0441 1.0133 0.9534 0.9188 0.8767 0.8141
0.7944 0.7598 0.7046 0.6794 0.6345 0.6102
0.5859 0.5363 0.5157 0.4737 0.4241 0.3727
0.3175 0.2717 0.1884 0.1230 0.0566 -0.0332
-0.1174 -0.2100 -0.2876 -0.3867 -0.4849 -0.5738
-0.6832 -0.7814 -0.8964 -0.9993 -1.1190 -1.2387
-1.3256 -1.4360 -1.5417 -1.6314 -1.7091 -1.7923
-1.8428 -1.8774 -1.9345 -1.9485 -1.9691 -1.9709
-1.9513 -1.9419 -1.8980 -1.8503 -1.7792 -1.7166
-1.6427 -1.5417 -1.4762 -1.3967 -1.3116 -1.2424
-1.1742 -1.1311 -1.0956 -1.0357 -0.9890 -0.9731
-0.9432 -0.8992 -0.8609 -0.8356 -0.8066 -0.7711
-0.7262 -0.6692 -0.6177 -0.5438 -0.4915 -0.4335
-0.3437 -0.2848 -0.2165 -0.1567 -0.1015 -0.0201
0.0350 0.0809 0.1416 0.1912 0.2370 0.3034
0.3483 0.4082 0.4811 0.5110 0.5475 0.5849
0.6158 0.6429 0.6466 0.6466 0.6476 0.6270
0.5915 0.5756 0.5185 0.4783 0.4690 0.4110
0.3801 0.3277 0.2931 0.2772 0.2267 0.2099
0.1884 0.1744 0.1641 0.1388 0.1398 0.1472
0.1229 0.1145 0.1136 0.0883 0.0799 0.0500
0.0107 -0.0127 -0.0510 -0.0950 -0.1258 -0.1688
-0.2119 -0.2324 -0.2727 -0.2998 -0.3381 -0.3755
-0.3858 -0.4195 -0.4382 -0.4531 -0.4831 -0.5130
-0.5411 -0.5813 -0.5972 -0.6149 -0.6682 -0.6879
-0.7477 -0.7936 -0.8066 -0.8749 -0.8936 -0.9020
-0.9479 -0.9572 -0.9572 -0.9834 -0.9675 -0.9535
-0.9479 -0.9048 -0.9030 -0.8833 -0.8338 -0.8020
-0.7749 -0.7449 -0.7215 -0.6907 -0.6523 -0.6561
-0.6364 -0.6140 -0.6018 -0.5822 -0.5738 -0.5457
-0.5317 -0.5158 -0.4840 -0.4541 -0.4298 -0.4017
-0.3746 -0.3456 -0.2914 -0.2661 -0.2334 -0.1679
-0.1352 -0.0940 -0.0417 -0.0015 0.0668 0.1201
0.1715 0.2333 0.2641 0.3371 0.4072 0.4371
0.5176 0.5877 0.6382 0.7158 0.7803 0.8514
0.9356 1.0048 1.0805 1.1507 1.1928 1.2489
1.2994 1.3461 1.3891 1.4181 1.4696 1.5117
1.5435 1.5799 1.6183 1.6566 1.6875 1.7286
1.7632 1.8034 1.8371 1.8380 1.8689 1.8857
1.8960 1.9213 1.9063 1.9166 1.9185 1.8932
1.8848 1.8708 1.8455 1.8203 1.7894 1.7595
1.7380 1.6903 1.6538 1.6155 1.5621 1.5294
1.4901 1.4359 1.3658 1.3162 1.2629 1.1984
1.1394 1.0646 1.0029 0.9393 0.8748 0.8037
0.7252 0.6616 0.5783 0.4942 0.4137 0.3146
0.2248 0.1407 0.0462 -0.0417 -0.1231 -0.2054
-0.2820 -0.3522 -0.4279 -0.5037 -0.5710 -0.6346
-0.7019 -0.7739 -0.8188 -0.8590 -0.9385 -0.9872
-1.0180 -1.0704 -1.1022 -1.1452 -1.1779 -1.1929
-1.2537 -1.2780 -1.2855 -1.3145 -1.3341 -1.3725
-1.3799 -1.4043 -1.4239 -1.4342 -1.4613 -1.4492
-1.4604 -1.4594 -1.4482 -1.4520 -1.4463 -1.4482
-1.4492 -1.4651 -1.4613 -1.4417 -1.4398 -1.4342
-1.4276 -1.4314 -1.4183 -1.4155 -1.4426 -1.4435
-1.4501 -1.4651 -1.4800 -1.5015 -1.5230 -1.5464
-1.5614 -1.5763 -1.5689 -1.5707 -1.5735 -1.5567
-1.5511 -1.5268 -1.5062 -1.4772 -1.4267 -1.4005
-1.3687 -1.3341 -1.2939 -1.2378 -1.1967 -1.1630
-1.1162 -1.0601 -1.0190 -0.9732 -0.9423 -0.9021
-0.8385 -0.8048 -0.7571 -0.6991 -0.6374 -0.5888
-0.5448 -0.4672 -0.3980 -0.3354 -0.2577 -0.1988
-0.1427 -0.0427 0.0378 0.1070 0.2052 0.2884
0.3903 0.5119 0.6288 0.7476 0.8794 1.0141
1.1310 1.2675 1.3994 1.5275 1.6697 1.7959
1.9175 2.0241 2.1410 2.2663 2.3654 2.4739
2.5805 2.6712 2.7638 2.8555 2.9387 3.0191
3.0921 3.1575 3.2361 3.2959 3.3689 3.4493
3.4979 3.5671 3.6251 3.6887 3.7691 3.8215
3.8776 3.9412 3.9983 4.0460 4.0806 4.1217
4.1591 4.1722 4.2031 4.2349 4.2339 4.2330
4.2321 4.2208 4.2105 4.1825 4.1357 4.1095
4.0684 4.0029 3.9375 3.8655 3.7972 3.7224
3.6363 3.5634 3.4858 3.3904 3.3034 3.2099
3.1182 3.0266 2.9219 2.8227 2.7273 2.6310
2.5328 2.4421 2.3636 2.2850 2.1934 2.1092
2.0540 1.9970 1.9343 1.8819 1.8473 1.8034
1.7463 1.7239 1.6996 1.6435 1.6079 1.5864
1.5453 1.5284 1.5107 1.4751 1.4620 1.4461
1.4181 1.4003 1.3872 1.3648 1.3451 1.3124
1.2843 1.2544 1.2179 1.1871 1.1516 1.1291
1.0861 1.0412 1.0047 0.9458 0.8906 0.8448
0.7943 0.7260 0.6559 0.5671 0.4745 0.3875
0.2687 0.1490 0.0359 -0.1007 -0.2437 -0.3831
-0.5215 -0.6683 -0.8236 -0.9751 -1.1107 -1.2416
-1.3875 -1.5175 -1.6512 -1.7896 -1.9074 -2.0346
-2.1805 -2.3170 -2.4414 -2.5705 -2.6855 -2.8090
-2.9184 -3.0306 -3.1447 -3.2270 -3.3336 -3.4093
-3.4907 -3.5795 -3.6272 -3.7123 -3.7881 -3.8358
-3.8882 -3.9527 -3.9845 -4.0172 -4.0546 -4.0780
-4.1079 -4.0939 -4.1061 -4.1145 -4.0855 -4.0799
-4.0715 -4.0556 -4.0284 -4.0088 -4.0023 -4.0032
-3.9910 -3.9817 -3.9695 -3.9499 -3.9574 -3.9490
-3.9405 -3.9396 -3.9368 -3.9293 -3.9190 -3.9359
-3.9405 -3.9471 -3.9536 -3.9546 -3.9723 -3.9779
-3.9910 -3.9995 -3.9948 -3.9985 -3.9901 -3.9733
-3.9592 -3.9433 -3.9349 -3.9190 -3.8872 -3.8601
-3.8508 -3.8330 -3.7975 -3.7853 -3.7778 -3.7638
-3.7516 -3.7236 -3.7152 -3.6946 -3.6768 -3.6628
-3.6422 -3.6254 -3.5786 -3.5543 -3.5206 -3.4636
-3.4253 -3.3663 -3.2915 -3.2354 -3.1625 -3.0783
-3.0203 -2.9390 -2.8679 -2.8165 -2.7257 -2.6631
-2.6079 -2.5266 -2.4630 -2.3722 -2.2900 -2.2105
-2.1076 -2.0309 -1.9374 -1.8214 -1.7223 -1.6082
-1.4941 -1.3959 -1.2687 -1.1556 -1.0574 -0.9405
-0.8292 -0.7076 -0.5889 -0.4729 -0.3457 -0.2185
-0.0932 0.0349 0.1546 0.2715 0.4099 0.5465
0.6811 0.8382 0.9766 1.1188 1.2965 1.4255
1.5752 1.7454 1.8819 2.0455 2.1802 2.3224
2.4804 2.6123 2.7395 2.8648 3.0041 3.1229
3.2407 3.3632 3.4539 3.5605 3.6821 3.7756
3.8617 3.9430 4.0141 4.0777 4.1291 4.1759
4.2021 4.2460 4.2937 4.2918 4.3003 4.3423
4.3498 4.3452 4.3648 4.3760 4.3798 4.3966
4.4200 4.4303 4.4536 4.4873 4.4948 4.5228
4.5649 4.5977 4.6276 4.6538 4.6828 4.7043
4.7239 4.7351 4.7398 4.7389 4.7286 4.7202
4.7061 4.6706 4.6285 4.5817 4.5341 4.4817
4.4013 4.3358 4.2610 4.1787 4.1001 4.0057
3.9262 3.8364 3.7345 3.6466 3.5493 3.4390
3.3595 3.2603 3.1537 3.0798 2.9807 2.8909
2.8030 2.7095 2.6366 2.5608 2.4776 2.4018
2.3251 2.2391 2.1549 2.0670 1.9791 1.8968
1.8099 1.7051 1.5910 1.4760 1.3647 1.2516
1.1309 1.0187 0.8878 0.7718 0.6615 0.5240
0.4220 0.3201 0.2154 0.1312 0.0433 -0.0334
-0.1241 -0.2036 -0.2634 -0.3308 -0.3962 -0.4654
-0.5253 -0.5964 -0.6646 -0.7179 -0.7815 -0.8348
-0.8835 -0.9405 -0.9901 -1.0238 -1.0612 -1.1117
-1.1500 -1.1753 -1.2136 -1.2379 -1.2351 -1.2594
-1.2622 -1.2744 -1.3043 -1.2996 -1.3080 -1.3137
-1.3183 -1.3230 -1.3258 -1.3137 -1.3099 -1.3081
-1.2856 -1.2996 -1.2716 -1.2510 -1.2576 -1.2342
-1.2276 -1.2127 -1.1986 -1.1930 -1.1874 -1.1734
-1.1481 -1.1528 -1.1528 -1.1350 -1.1360 -1.1304
-1.1248 -1.1444 -1.1659 -1.1781 -1.1893 -1.2033
-1.2248 -1.2351 -1.2548 -1.2707 -1.2837 -1.3240
-1.3370 -1.3632 -1.3932 -1.4119 -1.4521 -1.4717
-1.5026 -1.5381 -1.5578 -1.5867 -1.6064 -1.6195
-1.6419 -1.6588 -1.6700 -1.6999 -1.7093 -1.7064
-1.7308 -1.7214 -1.7214 -1.7317 -1.7130 -1.7326
-1.7364 -1.7298 -1.7373 -1.7308 -1.7420 -1.7411
-1.7382 -1.7280 -1.7308 -1.7532 -1.7532 -1.7775
-1.7803 -1.7841 -1.8000 -1.7990 -1.8084 -1.7906
-1.7990 -1.8000 -1.7766 -1.7775 -1.7644 -1.7551
-1.7383 -1.7065 -1.7046 -1.6924 -1.6737 -1.6691
-1.6401 -1.6307 -1.6232 -1.6148 -1.6008 -1.5699
-1.5428 -1.4951 -1.4689 -1.4250 -1.3707 -1.3315
-1.2594 -1.2099 -1.1753 -1.1164 -1.0640 -1.0341
-1.0004 -0.9555 -0.9144 -0.8919 -0.8704 -0.8414
-0.8274 -0.8208 -0.8134 -0.8059 -0.7937 -0.7657
-0.7498 -0.7414 -0.7170 -0.7030 -0.6778 -0.6460
-0.6366 -0.6188 -0.5908 -0.5515 -0.5132 -0.5038
-0.4711 -0.4318 -0.4215 -0.3832 -0.3598 -0.3458
-0.2887 -0.2597 -0.2261 -0.1812 -0.1531 -0.1120
-0.0942 -0.0727 -0.0372 -0.0091 -0.0072 0.0058
0.0283 0.0133 0.0199 0.0105 0.0012 0.0058
-0.0072 -0.0166 -0.0418 -0.0587 -0.0690 -0.0952
-0.1064 -0.1101 -0.1344 -0.1475 -0.1606 -0.1746
-0.1812 -0.1952 -0.1887 -0.1756 -0.1877 -0.1924
-0.1625 -0.1354 -0.1223 -0.0961 -0.0671 -0.0260
0.0049 0.0236 0.0844 0.1302 0.1611 0.2144
0.2574 0.2920 0.3173 0.3444 0.3752 0.3986
0.4080 0.4295 0.4472 0.4472 0.4585 0.4463
0.4566 0.4631 0.4454 0.4510 0.4304 0.4173
0.4182 0.3995 0.3911 0.3958 0.3827 0.3584
0.3706 0.3631 0.3490 0.3603 0.3621 0.3780
0.3949 0.4098 0.4220 0.4416 0.4631 0.4884
0.5286 0.5576 0.5913 0.6520 0.7175 0.7727
0.8391 0.9130 0.9822 1.0616 1.1421 1.2169
1.2973 1.3656 1.4077 1.4703 1.5339 1.5638
1.5863 1.6153 1.6480 1.6480 1.6349 1.6358
1.6246 1.5919 1.5751 1.5517 1.5255 1.5246
1.4900 1.4628 1.4507 1.4254 1.4114 1.3815
1.3403 1.3188 1.2936 1.2534 1.2393 1.2178
1.1944 1.1654 1.1178 1.1159 1.0944 1.0504
1.0317 0.9990 0.9653 0.9204 0.8634 0.8335
0.7876 0.7343 0.7156 0.6632 0.6109 0.5856
0.5342 0.5071 0.4818 0.4210 0.3818 0.3453
0.3041 0.2630 0.2106 0.1498 0.1087 0.0535
-0.0073 -0.0522 -0.1382 -0.1887 -0.2336 -0.3075
-0.3496 -0.4103 -0.4693 -0.5244 -0.5890 -0.6479
-0.6946 -0.7489 -0.8097 -0.8611 -0.9210 -0.9602
-1.0014 -1.0500 -1.1071 -1.1735 -1.2034 -1.2370
-1.2904 -1.3437 -1.3979 -1.4362 -1.4755 -1.5232
-1.5700 -1.6111 -1.6682 -1.7262 -1.7664 -1.8365
-1.8992 -1.9412 -1.9927 -2.0544 -2.1143 -2.1601
-2.2031 -2.2611 -2.3209 -2.3481 -2.3855 -2.4145
-2.4397 -2.4790 -2.4678 -2.4565 -2.4678 -2.4416
-2.4079 -2.3836 -2.3256 -2.2807 -2.2340 -2.1657
-2.1115 -2.0320 -1.9347 -1.8515 -1.7664 -1.6841
-1.5924 -1.4942 -1.4101 -1.3287 -1.2567 -1.1772
-1.0940 -1.0238 -0.9836 -0.9266 -0.8770 -0.8368
-0.7910 -0.7985 -0.7695 -0.7405 -0.7414 -0.7199
-0.7330 -0.7433 -0.7480 -0.7517 -0.7620 -0.7798
-0.7929 -0.8022 -0.8050 -0.8284 -0.8209 -0.8059
-0.8097 -0.7938 -0.7732 -0.7293 -0.6732 -0.6180
-0.5553 -0.4955 -0.4160 -0.3449 -0.2626 -0.1822
-0.1167 -0.0110 0.0684 0.1470 0.2415 0.3144
0.3976 0.4593 0.5463 0.6305 0.6950 0.7923
0.8633 0.9475 1.0476 1.1345 1.2215 1.3104
1.4226 1.5255 1.6143 1.7078 1.8051 1.8977
1.9762 2.0566 2.1352 2.2147 2.2942 2.3596
2.4242 2.4990 2.5588 2.6318 2.6963 2.7468
2.8010 2.8291 2.8805 2.9254 2.9479 2.9881
3.0245 3.0582 3.0891 3.1321 3.1873 3.2322
3.2658 3.2986 3.3444 3.3939 3.4257 3.4688
3.5174 3.5548 3.5894 3.6240 3.6754 3.7091
3.7250 3.7474 3.7811 3.8157 3.8110 3.8194
3.8466 3.8372 3.8223 3.8138 3.7951 3.7652
3.7362 3.7091 3.6689 3.6333 3.5922 3.5482
3.5127 3.4613 3.4388 3.4098 3.3631 3.3481
3.2957 3.2546 3.2359 3.1788 3.1424 3.0984
3.0330 2.9722 2.8805 2.8020 2.7141 2.6112
2.5158 2.3867 2.2792 2.1791 2.0547 1.9341
1.8200 1.7162 1.6105 1.5011 1.3842 1.2795
1.1757 1.0635 0.9830 0.8886 0.7792 0.6950
0.6071 0.5182 0.4416 0.3639 0.2863 0.2255
0.1610 0.0918 0.0217 -0.0578 -0.1177 -0.1925
-0.2748 -0.3431 -0.4347 -0.5151 -0.5853 -0.6582
-0.7274 -0.8237 -0.9126 -0.9799 -1.0706 -1.1670
-1.2408 -1.3306 -1.4466 -1.5551 -1.6579 -1.7599
-1.8684 -1.9899 -2.0984 -2.2106 -2.3509 -2.4715
-2.5959 -2.7334 -2.8503 -2.9794 -3.0944 -3.2188
-3.3459 -3.4591 -3.5760 -3.6648 -3.7640 -3.8612
-3.9286 -3.9828 -4.0277 -4.0782 -4.1203 -4.1371
-4.1661 -4.1857 -4.1811 -4.1857 -4.1867 -4.1820
-4.1633 -4.1474 -4.1240 -4.1006 -4.0754 -4.0193
-3.9809 -3.9417 -3.8902 -3.8435 -3.7911 -3.7415
-3.6864 -3.6246 -3.5741 -3.5227 -3.4582 -3.4058
-3.3413 -3.2833 -3.2272 -3.1645 -3.1402 -3.0897
-3.0355 -2.9981 -2.9560 -2.9102 -2.8484 -2.8241
-2.7923 -2.7446 -2.7269 -2.6726 -2.6380 -2.6165
-2.5707 -2.5436 -2.5221 -2.5164 -2.4837 -2.4463
-2.4192 -2.3724 -2.3397 -2.2855 -2.2340 -2.1798
-2.1012 -2.0274 -1.9553 -1.8628 -1.7655 -1.6926
-1.6103 -1.5158 -1.4307 -1.3512 -1.2474 -1.1576
-1.0763 -0.9650 -0.8995 -0.8238 -0.7181 -0.6405
-0.5413 -0.4544 -0.3796 -0.2767 -0.1944 -0.1205
-0.0317 0.0525 0.1208 0.1956 0.2797 0.3499
0.4079 0.4509 0.5089 0.5631 0.6108 0.6613
0.6996 0.7455 0.7866 0.8147 0.8390 0.8764
0.9026 0.9138 0.9297 0.9428 0.9568 0.9428
0.9372 0.9306 0.9016 0.9016 0.8773 0.8474
0.8380 0.7922 0.7660 0.7445 0.6987 0.6706
0.6463 0.6070 0.5715 0.5519 0.5369 0.5107
0.4836 0.4799 0.4696 0.4537 0.4537 0.4266
0.4144 0.4284 0.4200 0.4107 0.4125 0.4107
0.4303 0.4406 0.4284 0.4518 0.4527 0.4509
0.4696 0.4630 0.4724 0.4855 0.4836 0.4920
0.5042 0.5191 0.5350 0.5304 0.5462 0.5668
0.5584 0.5837 0.5996 0.6042 0.6164 0.6295
0.6370 0.6285 0.6370 0.6416 0.6566 0.6669
0.6650 0.6753 0.6716 0.6790 0.6837 0.6781
0.6790 0.6940 0.7034 0.6987 0.7108 0.7314
0.7501 0.7473 0.7679 0.7941 0.8072 0.8549
0.8792 0.9184 0.9708 0.9979 1.0428 1.0943
1.1317 1.1644 1.1981 1.2411 1.2766 1.2832
1.3093 1.3271 1.3224 1.3187 1.3056 1.2906
1.2598 1.2439 1.2177 1.1794 1.1616 1.1298
1.1064 1.0718 1.0204 1.0007 0.9577 0.9278
0.9082 0.8464 0.8174 0.7866 0.7595 0.7267
0.6884 0.6987 0.6949 0.6556 0.6313 0.6360
0.6126 0.5836 0.5631 0.5359 0.5285 0.4836
0.4471 0.4312 0.3835 0.3611 0.3152 0.2704
0.2582 0.2086 0.1796 0.1572 0.1123 0.0992
0.0814 0.0571 0.0356 0.0020 -0.0027 -0.0168
-0.0485 -0.0448 -0.0682 -0.0822 -0.0626 -0.0719
-0.0673 -0.0673 -0.0495 -0.0149 -0.0046 0.0010
0.0085 0.0272 0.0375 0.0319 0.0188 0.0113
0.0113 0.0094 -0.0121 -0.0457 -0.0645 -0.0813
-0.1000 -0.1393 -0.1814 -0.2113 -0.2506 -0.2702
-0.2861 -0.3113 -0.3300 -0.3656 -0.3936 -0.4095
-0.4329 -0.4310 -0.4357 -0.4554 -0.4526 -0.4423
-0.4385 -0.4254 -0.4077 -0.4142 -0.4077 -0.3918
-0.4058 -0.4152 -0.4067 -0.4133 -0.4292 -0.4311
-0.4376 -0.4554 -0.4666 -0.4741 -0.4890 -0.4993
-0.5190 -0.5545 -0.5517 -0.5489 -0.5648 -0.5713
-0.5844 -0.5928 -0.5985 -0.5928 -0.5854 -0.5760
-0.5676 -0.5648 -0.5442 -0.5442 -0.5461 -0.5236
-0.5358 -0.5152 -0.4872 -0.4965 -0.4741 -0.4685
-0.4544 -0.4311 -0.4264 -0.3974 -0.3796 -0.3880
-0.3768 -0.3721 -0.3796 -0.3525 -0.3562 -0.3693
-0.3665 -0.3806 -0.3862 -0.3824 -0.3983 -0.4142
-0.4180 -0.4460 -0.4367 -0.4320 -0.4797 -0.4872
-0.4825 -0.4844 -0.4816 -0.4797 -0.4666 -0.4629
-0.4544 -0.4404 -0.4311 -0.4096 -0.3806 -0.3591
-0.3385 -0.3123 -0.3058 -0.2768 -0.2365 -0.2450
-0.2366 -0.2197 -0.2207 -0.2019 -0.2029 -0.2066
-0.1832 -0.1702 -0.1505 -0.1356 -0.1309 -0.0851
-0.0645 -0.0551 -0.0140 0.0159 0.0356 0.0683
0.1141 0.1263 0.1478 0.2002 0.2451 0.2563
0.2479 0.2918 0.3433 0.3797 0.3900 0.3779
0.4040 0.4284 0.4414 0.4742 0.4873 0.4994
0.5247 0.5331 0.5434 0.5518 0.5481 0.5621
0.5621 0.5583 0.5677 0.5490 0.5359 0.5340
0.5228 0.5219 0.5181 0.5153 0.5275 0.5275
0.5219 0.5527 0.5911 0.6182 0.6762 0.7370
0.7669 0.8323 0.8959 0.9567 1.0418 1.0970
1.1681 1.2204 1.2803 1.3458 1.3935 1.4552
1.4767 1.5206 1.5786 1.6160 1.6329 1.6628
1.7067 1.7002 1.7357 1.7638 1.7750 1.8068
1.8003 1.8227 1.8246 1.8349 1.8704 1.8620
1.8573 1.8480 1.8451 1.8246 1.7993 1.7928
1.7628 1.7404 1.7021 1.6647 1.6357 1.5908
1.5627 1.5197 1.4683 1.4243 1.3775 1.3439
1.3224 1.2934 1.2504 1.2120 1.1943 1.1643
1.1166 1.0886 1.0755 1.0250 0.9651 0.9455
0.9212 0.8735 0.8361 0.7996 0.7510 0.7070
0.6500 0.6079 0.5639 0.5060 0.4555 0.3741
0.3199 0.2581 0.1796 0.1225 0.0486 -0.0103
-0.0804 -0.1393 -0.2029 -0.2796 -0.3441 -0.4115
-0.4545 -0.5256 -0.6050 -0.6602 -0.7173 -0.7743
-0.8332 -0.8753 -0.9024 -0.9557 -1.0100 -1.0371
-1.0811 -1.1166 -1.1531 -1.1886 -1.1998 -1.2410
-1.2737 -1.2887 -1.3167 -1.3504 -1.3841 -1.3981
-1.4102 -1.4346 -1.4570 -1.4664 -1.4860 -1.5010
-1.5047 -1.5150 -1.5187 -1.5159 -1.5150 -1.5112
-1.5131 -1.5159 -1.4935 -1.4888 -1.4823 -1.4579
-1.4673 -1.4420 -1.4215 -1.4299 -1.4074 -1.4018
-1.3831 -1.3813 -1.3803 -1.3476 -1.3420 -1.3289
-1.3167 -1.3064 -1.2887 -1.2746 -1.2541 -1.2251
-1.1933 -1.1718 -1.1437 -1.1044 -1.0727 -1.0381
-0.9913 -0.9567 -0.9249 -0.8828 -0.8482 -0.7940
-0.7351 -0.6874 -0.6228 -0.5705 -0.5200 -0.4517
-0.3769 -0.3030 -0.2385 -0.1562 -0.0683 0.0075
0.0879 0.1702 0.2525 0.3254 0.4003 0.4723
0.5527 0.6238 0.6789 0.7491 0.7949 0.8463
0.9006 0.9352 0.9894 1.0287 1.0483 1.0867
1.1166 1.1419 1.1793 1.1924 1.2167 1.2400
1.2503 1.2662 1.2718 1.2905 1.2990 1.3036
1.3149 1.3279 1.3448 1.3738 1.3953 1.4149
1.4635 1.4935 1.5225 1.5589 1.5935 1.6347
1.6684 1.6992 1.7254 1.7787 1.8058 1.8329
1.8862 1.9059 1.9489 1.9723 1.9975 2.0284
2.0396 2.0649 2.0723 2.0967 2.1191 2.1294
2.1350 2.1397 2.1640 2.1621 2.1574 2.1500
2.1303 2.1154 2.0873 2.0602 2.0293 1.9966
1.9629 1.9227 1.8890 1.8367 1.7890 1.7628
1.7422 1.7011 1.6581 1.6487 1.6197 1.5945
1.5636 1.5346 1.5262 1.4907 1.4804 1.4626
1.4402 1.4289 1.4130 1.4084 1.4084 1.4205
1.4121 1.4205 1.4336 1.4205 1.4317 1.4476
1.4495 1.4532 1.4467 1.4579 1.4813 1.4663
1.4561 1.4579 1.4523 1.4486 1.4317 1.4317
1.4280 1.4168 1.4084 1.3953 1.3775 1.3522
1.3307 1.2989 1.2765 1.2540 1.2269 1.2251
1.1933 1.1643 1.1297 1.0913 1.0810 1.0212
0.9847 0.9454 0.8734 0.8351 0.7649 0.6939
0.6153 0.5545 0.4975 0.4171 0.3535 0.2525
0.1739 0.0972 0.0046 -0.0608 -0.1515 -0.2357
-0.3021 -0.3853 -0.4732 -0.5509 -0.6257 -0.6930
-0.7734 -0.8604 -0.9137 -0.9810 -1.0671 -1.1400
-1.2036 -1.2653 -1.3289 -1.3897 -1.4402 -1.4954
-1.5506 -1.5870 -1.6291 -1.6703 -1.6937 -1.7367
-1.7516 -1.7451 -1.7844 -1.7937 -1.8059 -1.8208
-1.8021 -1.8124 -1.7881 -1.7657 -1.7713 -1.7470
-1.7470 -1.7329 -1.7189 -1.7198 -1.7021 -1.7086
-1.7170 -1.7096 -1.7068 -1.7301 -1.7189 -1.7208
-1.7423 -1.7245 -1.7488 -1.7703 -1.7750 -1.7853
-1.8003 -1.8134 -1.8199 -1.8255 -1.8498 -1.8723
-1.8695 -1.8798 -1.8751 -1.8760 -1.8816 -1.8723
-1.8770 -1.8732 -1.8564 -1.8555 -1.8508 -1.8237
-1.8134 -1.8003 -1.7750 -1.7666 -1.7348 -1.7086
-1.6890 -1.6507 -1.6161 -1.5899 -1.5805 -1.5534
-1.5253 -1.4992 -1.4739 -1.4515 -1.4159 -1.4131
-1.3935 -1.3570 -1.3290 -1.3102 -1.3037 -1.2728
-1.2551 -1.2392 -1.2064 -1.1859 -1.1672 -1.1279
-1.0952 -1.0895 -1.0652 -1.0278 -0.9886 -0.9652
-0.9334 -0.8782 -0.8548 -0.8090 -0.7529 -0.7108
-0.6697 -0.6285 -0.5733 -0.5341 -0.4910 -0.4527
-0.3985 -0.3582 -0.3339 -0.2853 -0.2610 -0.2339
-0.1965 -0.1619 -0.1132 -0.0842 -0.0693 -0.0197
0.0299 0.0495 0.0991 0.1580 0.1870 0.2506
0.3198 0.3749 0.4292 0.4900 0.5816 0.6480
0.7163 0.8079 0.8893 0.9585 1.0464 1.1549
1.2568 1.3485 1.4401 1.5439 1.6131 1.6870
1.7712 1.8291 1.8909 1.9479 1.9834 1.9947
2.0255 2.0274 2.0031 2.0003 1.9685 1.9301
1.8937 1.8488 1.7992 1.7197 1.6412 1.5720
1.4822 1.3980 1.3167 1.2119 1.1156 1.0015
0.8809 0.7873 0.6611 0.5311 0.4264 0.2861
0.1561 0.0327 -0.1263 -0.2610 -0.4069 -0.5640
-0.6977 -0.8427 -0.9961 -1.1504 -1.3093 -1.4534
-1.5936 -1.7377 -1.8620 -1.9948 -2.1164 -2.2249
-2.3502 -2.4456 -2.5485 -2.6373 -2.7093 -2.8038
-2.8767 -2.9431 -2.9917 -3.0376 -3.0881 -3.1283
-3.1563 -3.1816 -3.2181 -3.2330 -3.2555 -3.2835
-3.2882 -3.2779 -3.2901 -3.2919 -3.2667 -3.2742
-3.2676 -3.2657 -3.2499 -3.2068 -3.2134 -3.1769
-3.1264 -3.1012 -3.0441 -2.9992 -2.9515 -2.8945
-2.8421 -2.7879 -2.7420 -2.6831 -2.6205 -2.5625
-2.4924 -2.4138 -2.3511 -2.2988 -2.2212 -2.1510
-2.0930 -2.0145 -1.9331 -1.8658 -1.8041 -1.7377
-1.6666 -1.5862 -1.5198 -1.4599 -1.4047 -1.3505
-1.2841 -1.2448 -1.1887 -1.1457 -1.1307 -1.0812
-1.0475 -1.0241 -0.9895 -0.9652 -0.9596 -0.9372
-0.9054 -0.8876 -0.8595 -0.8483 -0.8324 -0.7987
-0.7726 -0.7361 -0.6949 -0.6501 -0.6005 -0.5491
-0.5042 -0.4424 -0.3863 -0.3330 -0.2648 -0.2077
-0.1105 -0.0375 0.0139 0.1168 0.1944 0.2776
0.3655 0.4385 0.5423 0.6293 0.6975 0.7854
0.8472 0.9220 1.0052 1.0445 1.1137 1.1679
1.1979 1.2465 1.2633 1.2717 1.2820 1.2886
1.3007 1.2811 1.2624 1.2643 1.2437 1.2156
1.2044 1.1820 1.1661 1.1633 1.1156 1.0894
1.0819 1.0333 1.0183 0.9874 0.9435 0.9341
0.8977 0.8696 0.8556 0.8256 0.8023 0.7854
0.7817 0.7798 0.7723 0.7658 0.7826 0.7882
0.8023 0.8453 0.8584 0.8930 0.9313 0.9622
1.0024 1.0323 1.0744 1.1071 1.1286 1.1651
1.2128 1.2287 1.2540 1.2895 1.3054 1.3269
1.3475 1.3802 1.4083 1.4270 1.4391 1.4503
1.4616 1.4728 1.4896 1.5008 1.5055 1.5186
1.5382 1.5429 1.5532 1.5551 1.5541 1.5457
1.5345 1.5411 1.5214 1.5046 1.4915 1.4690
1.4429 1.4185 1.4064 1.3774 1.3437 1.3381
1.3250 1.2895 1.2811 1.2792 1.2642 1.2596
1.2829 1.2998 1.3016 1.3222 1.3400 1.3708
1.3905 1.4195 1.4541 1.4634 1.5186 1.5532
1.5663 1.6037 1.6336 1.6579 1.6897 1.7094
1.7094 1.7318 1.7449 1.7561 1.7571 1.7281
1.7337 1.7365 1.7159 1.7019 1.6813 1.6626
1.6448 1.6159 1.5841 1.5438 1.4990 1.4503
1.4082 1.3615 1.3119 1.2689 1.2100 1.1670
1.1155 1.0538 1.0080 0.9416 0.8873 0.8303
0.7695 0.7097 0.6377 0.5843 0.5189 0.4441
0.3852 0.3225 0.2552 0.1897 0.1224 0.0485
-0.0142 -0.0750 -0.1460 -0.1975 -0.2583 -0.3218
-0.3733 -0.4331 -0.4649 -0.5117 -0.5613 -0.5790
-0.6211 -0.6426 -0.6454 -0.6529 -0.6510 -0.6510
-0.6267 -0.6155 -0.6071 -0.5874 -0.5753 -0.5482
-0.5220 -0.4967 -0.4752 -0.4528 -0.4219 -0.4051
-0.3957 -0.3995 -0.3883 -0.3808 -0.3817 -0.3677
-0.3826 -0.3911 -0.3911 -0.4172 -0.4303 -0.4453
-0.4724 -0.5023 -0.5295 -0.5454 -0.5744 -0.6043
-0.6258 -0.6454 -0.6623 -0.6838 -0.6950 -0.7268
-0.7530 -0.7427 -0.7707 -0.7923 -0.7969 -0.8054
-0.8166 -0.8437 -0.8465 -0.8633 -0.8970 -0.9241
-0.9447 -0.9559 -0.9971 -1.0074 -1.0223 -1.0429
-1.0214 -1.0429 -1.0261 -0.9971 -0.9989 -0.9709
-0.9438 -0.8961 -0.8531 -0.8110 -0.7595 -0.6931
-0.6295 -0.5660 -0.5014 -0.4500 -0.3817 -0.3471
-0.2929 -0.2274 -0.1984 -0.1498 -0.1058 -0.0628
-0.0301 -0.0123 -0.0030 0.0335 0.0447 0.0344
0.0728 0.0690 0.0718 0.0915 0.0933 0.1055
0.0980 0.0971 0.1074 0.1111 0.1092 0.1167
0.1242 0.1476 0.1607 0.1560 0.1766 0.1766
0.1756 0.1831 0.1691 0.1813 0.1878 0.1841
0.2009 0.2037 0.2084 0.2037 0.1943 0.2140
0.2205 0.2149 0.2177 0.2159 0.2112 0.2037
0.1869 0.1663 0.1579 0.1410 0.1251 0.1074
0.0802 0.0615 0.0391 0.0157 0.0026 -0.0133
-0.0423 -0.0759 -0.0984 -0.1236 -0.1741 -0.2097
-0.2592 -0.3312 -0.3630 -0.4004 -0.4594 -0.5295
-0.5828 -0.6221 -0.6875 -0.7119 -0.7502 -0.8250
-0.8400 -0.8849 -0.9260 -0.9223 -0.9616 -0.9793
-0.9840 -0.9915 -0.9746 -0.9896 -1.0018 -0.9672
-0.9634 -0.9569 -0.9111 -0.8924 -0.8540 -0.8138
-0.7783 -0.7250 -0.6838 -0.6277 -0.5632 -0.4912
-0.4397 -0.3920 -0.3228 -0.2461 -0.1835 -0.1358
-0.0628 -0.0077 0.0503 0.1139 0.1438 0.1878
0.2158 0.2439 0.2691 0.2701 0.2935 0.2972
0.2953 0.2869 0.2701 0.2682 0.2532 0.2317
0.1962 0.1747 0.1541 0.1148 0.0868 0.0634
0.0419 0.0260 0.0045 -0.0217 -0.0367 -0.0488
-0.0470 -0.0479 -0.0526 -0.0442 -0.0488 -0.0572
-0.0498 -0.0329 -0.0236 -0.0170 -0.0058 0.0129
0.0129 -0.0049 0.0213 0.0232 0.0045 0.0129
0.0017 -0.0096 -0.0236 -0.0414 -0.0685 -0.0862
-0.0760 -0.0816 -0.1003 -0.0965 -0.0928 -0.1096
-0.1003 -0.0844 -0.0778 -0.0554 -0.0516 -0.0442
-0.0329 -0.0301 0.0007 0.0026 0.0045 0.0278
0.0278 0.0381 0.0391 0.0475 0.0522 0.0409
0.0465 0.0503 0.0559 0.0400 0.0260 0.0194
0.0007 -0.0217 -0.0414 -0.0376 -0.0638 -0.0900
-0.0965 -0.1096 -0.1124 -0.1321 -0.1274 -0.1358
-0.1508 -0.1339 -0.1489 -0.1629 -0.1676 -0.1882
-0.1938 -0.2041 -0.2153 -0.2078 -0.2219 -0.2275
-0.2237 -0.2265 -0.2144 -0.2097 -0.1985 -0.1742
-0.1508 -0.1265 -0.0919 -0.0563 -0.0096 0.0493
0.0877 0.1494 0.1999 0.2485 0.3402 0.3888
0.4449 0.5207 0.5646 0.6282 0.6806 0.7255
0.7835 0.8265 0.8723 0.9237 0.9742 1.0144
1.0416 1.0603 1.0921 1.1379 1.1435 1.1585
1.1781 1.1697 1.1875 1.1931 1.1865 1.1772
1.1697 1.1631 1.1566 1.1416 1.0986 1.0995
1.0734 1.0126 0.9985 0.9434 0.8929 0.8536
0.7844 0.7517 0.6927 0.6376 0.5955 0.5347
0.5020 0.4617 0.4225 0.3944 0.3636 0.3271
0.2934 0.2710 0.2588 0.2392 0.2036 0.1849
0.1634 0.1531 0.1428 0.1372 0.1354 0.1073
0.0923 0.0923 0.0905 0.0708 0.0624 0.0521
0.0372 0.0344 0.0072 0.0110 -0.0030 -0.0348
-0.0320 -0.0470 -0.0582 -0.0676 -0.0788 -0.0928
-0.1050 -0.1087 -0.1190 -0.1143 -0.1246 -0.1452
-0.1471 -0.1499 -0.1564 -0.1499 -0.1443 -0.1396
-0.1181 -0.1312 -0.1415 -0.1349 -0.1377 -0.1171
-0.1330 -0.1471 -0.1228 -0.1377 -0.1424 -0.1256
-0.1330 -0.1321 -0.1293 -0.1312 -0.1143 -0.1134
-0.1087 -0.0910 -0.0919 -0.0779 -0.0891 -0.0853
-0.0620 -0.0610 -0.0592 -0.0723 -0.0592 -0.0564
-0.0620 -0.0657 -0.0629 -0.0582 -0.0872 -0.0769
-0.0854 -0.0872 -0.0825 -0.1190 -0.1050 -0.1041
-0.1377 -0.1480 -0.1499 -0.1751 -0.1929 -0.1957
-0.2079 -0.2182 -0.2331 -0.2397 -0.2462 -0.2556
-0.2584 -0.2715 -0.2864 -0.2864 -0.3042 -0.3276
-0.3220 -0.3556 -0.3799 -0.3846 -0.4183 -0.4258
-0.4417 -0.4604 -0.4548 -0.4763 -0.4912 -0.4819
-0.4772 -0.4781 -0.4744 -0.4632 -0.4557 -0.4314
-0.4202 -0.4033 -0.3846 -0.3678 -0.3285 -0.3229
-0.2780 -0.2369 -0.2256 -0.1714 -0.1387 -0.1106
-0.0695 -0.0480 -0.0199 0.0110 0.0222 0.0418
0.0643 0.0736 0.0811 0.0970 0.1063 0.1241
0.1438 0.1250 0.1531 0.1784 0.1765 0.2158
0.2260 0.2363 0.2747 0.2831 0.3140 0.3439
0.3373 0.3598 0.3869 0.4168 0.4542 0.4645
0.4944 0.5272 0.5356 0.5599 0.5702 0.5861
0.6198 0.6244 0.6282 0.6291 0.6141 0.5992
0.5926 0.5730 0.5431 0.5000 0.4580 0.4374
0.3813 0.3345 0.2962 0.2429 0.2158 0.1727
0.1297 0.1063 0.0689 0.0250 -0.0040 -0.0424
-0.0835 -0.1116 -0.1415 -0.1602 -0.1957 -0.2425
-0.2500 -0.2593 -0.3080 -0.3313 -0.3126 -0.3398
-0.3538 -0.3407 -0.3472 -0.3528 -0.3603 -0.3407
-0.3351 -0.3267 -0.3070 -0.3136 -0.2921 -0.2771
-0.2668 -0.2425 -0.2285 -0.2060 -0.1630 -0.1340
-0.1331 -0.0910 -0.0498 -0.0358 -0.0003 0.0194
0.0577 0.0932 0.1063 0.1363 0.1568 0.1839
0.2195 0.2541 0.2803 0.3214 0.3532 0.3551
0.3990 0.4271 0.4430 0.4869 0.5150 0.5524
0.5898 0.6235 0.6590 0.7086 0.7628 0.7974
0.8470 0.9003 0.9620 1.0368 1.0995 1.1706
1.2211 1.2865 1.3735 1.4371 1.5156 1.5783
1.6522 1.7485 1.8149 1.8888 1.9776 2.0646
2.1441 2.2114 2.2984 2.3919 2.4574 2.5266
2.6042 2.6584 2.7108 2.7772 2.8258 2.8875
2.9474 2.9633 3.0213 3.0587 3.0783 3.1419
3.1559 3.1962 3.2476 3.2513 3.2906 3.3224
3.3402 3.3673 3.3851 3.4159 3.4421 3.4515
3.4786 3.5048 3.5057 3.5141 3.5160 3.5001
3.5076 3.5057 3.4730 3.4496 3.4243 3.3860
3.3439 3.2943 3.2569 3.1990 3.1241 3.0764
3.0054 2.9362 2.8772 2.7996 2.7435 2.6659
2.5930 2.5368 2.4415 2.3657 2.2993 2.2245
2.1534 2.0898 2.0356 1.9608 1.8897 1.8214
1.7550 1.6952 1.6363 1.5886 1.5437 1.4791
1.4109 1.3510 1.2996 1.2500 1.1743 1.0995
1.0321 0.9564 0.8853 0.8142 0.7460 0.6730
0.5907 0.5309 0.4532 0.3551 0.2924 0.2110
0.1156 0.0464 -0.0377 -0.1266 -0.2061 -0.2846
-0.3865 -0.4829 -0.5633 -0.6615 -0.7466 -0.8317
-0.9252 -1.0169 -1.1076 -1.1945 -1.2946 -1.3769
-1.4452 -1.5312 -1.5976 -1.6790 -1.7706 -1.8333
-1.9044 -1.9549 -2.0241 -2.1110 -2.1410 -2.1784
-2.2335 -2.2644 -2.2971 -2.3355 -2.3701 -2.3935
-2.4150 -2.4440 -2.4617 -2.4870 -2.5038 -2.5160
-2.5328 -2.5562 -2.5898 -2.6020 -2.6301 -2.6675
-2.6899 -2.7264 -2.7694 -2.8246 -2.8639 -2.8760
-2.9228 -2.9808 -3.0154 -3.0425 -3.0668 -3.1061
-3.1435 -3.1697 -3.2005 -3.2286 -3.2389 -3.2557
-3.2856 -3.2903 -3.3043 -3.3249 -3.3258 -3.3445
-3.3642 -3.3464 -3.3455 -3.3576 -3.3427 -3.3315
-3.3202 -3.3174 -3.2959 -3.2548 -3.2323 -3.1996
-3.1510 -3.1126 -3.0846 -3.0341 -2.9845 -2.9293
-2.8676 -2.8171 -2.7479 -2.6862 -2.6207 -2.5496
-2.4907 -2.4206 -2.3439 -2.2841 -2.2261 -2.1494
-2.0793 -2.0035 -1.9249 -1.8632 -1.7893 -1.7127
-1.6453 -1.5855 -1.5303 -1.4574 -1.4012 -1.3610
-1.2909 -1.2338 -1.2151 -1.1684 -1.1226 -1.1057
-1.0758 -1.0431 -1.0038 -0.9870 -0.9608 -0.9084
-0.8925 -0.8701 -0.8299 -0.8027 -0.7709 -0.7317
-0.6924 -0.6531 -0.6250 -0.5942 -0.5736 -0.5502
-0.5063 -0.4707 -0.4427 -0.4324 -0.3950 -0.3613
-0.3389 -0.3108 -0.2865 -0.2463 -0.2304 -0.2145
-0.1939 -0.1921 -0.1818 -0.1668 -0.1472 -0.1360
-0.1313 -0.1088 -0.0761 -0.0639 -0.0677 -0.0256
0.0071 0.0127 0.0567 0.0876 0.1306 0.1727
0.2073 0.2737 0.3167 0.3597 0.4111 0.4598
0.5205 0.5785 0.6356 0.6879 0.7431 0.8058
0.8600 0.9002 0.9676 1.0442 1.0901 1.1555
1.2331 1.2827 1.3444 1.4099 1.4604 1.5156
1.5698 1.6241 1.6717 1.7073 1.7409 1.7830
1.8307 1.8681 1.8868 1.9196 1.9570 1.9775
1.9963 2.0215 2.0468 2.0496 2.0655 2.0739
2.0814 2.1001 2.0860 2.0991 2.1066 2.0954
2.0972 2.0870 2.0767 2.0673 2.0552 2.0383
2.0308 2.0196 1.9991 1.9916 1.9719 1.9682
1.9738 1.9607 1.9626 1.9551 1.9523 1.9673
1.9626 1.9654 1.9673 1.9411 1.9373 1.9317
1.9027 1.8943 1.8784 1.8588 1.8214 1.7634
1.7176 1.6633 1.6147 1.5679 1.4903 1.4080
1.3472 1.2733 1.1929 1.1256 1.0302 0.9442
0.8768 0.7814 0.6804 0.6056 0.5196 0.4326
0.3419 0.2418 0.1689 0.1006 0.0239 -0.0649
-0.1416 -0.1930 -0.2538 -0.3193 -0.3576 -0.4062
-0.4437 -0.4614 -0.5231 -0.5306 -0.5390 -0.5793
-0.5774 -0.5877 -0.5905 -0.5998 -0.6195 -0.6185
-0.6195 -0.6129 -0.6073 -0.6176 -0.6176 -0.6092
-0.6073 -0.6064 -0.5989 -0.5980 -0.6045 -0.5998
-0.6157 -0.6167 -0.6213 -0.6372 -0.6279 -0.6485
-0.6513 -0.6466 -0.6634 -0.6690 -0.6793 -0.6934
-0.7018 -0.7093 -0.7280 -0.7429 -0.7429 -0.7598
-0.7616 -0.7700 -0.7953 -0.7972 -0.8168 -0.8205
-0.8159 -0.8364 -0.8439 -0.8542 -0.8636 -0.8626
-0.8888 -0.9019 -0.8851 -0.9019 -0.8982 -0.8841
-0.9103 -0.8823 -0.8505 -0.8533 -0.8206 -0.8018
-0.7738 -0.7326 -0.7102 -0.6672 -0.6223 -0.5802
-0.5176 -0.4689 -0.4119 -0.3389 -0.2894 -0.2267
-0.1547 -0.0771 0.0005 0.0651 0.1343 0.1979
0.2717 0.3456 0.4120 0.4784 0.5364 0.6140
0.6561 0.6860 0.7347 0.7505 0.7749 0.8001
0.8067 0.8272 0.8244 0.8067 0.8132 0.8029
0.7954 0.7805 0.7534 0.7431 0.7253 0.7113
0.6795 0.6570 0.6439 0.6206 0.6131 0.5888
0.5607 0.5485 0.5205 0.4887 0.4616 0.4419
0.4195 0.3840 0.3381 0.3017 0.2708 0.2381
0.2044 0.1539 0.1156 0.0660 0.0304 -0.0023
-0.0640 -0.0808 -0.1295 -0.1940 -0.2249 -0.2828
-0.3389 -0.3764 -0.4287 -0.4839 -0.5176 -0.5606
-0.6158 -0.6672 -0.7074 -0.7486 -0.8084 -0.8580
-0.9103 -0.9655 -1.0123 -1.0628 -1.1245 -1.1741
-1.2330 -1.2816 -1.3022 -1.3648 -1.4023 -1.4312
-1.4874 -1.5098 -1.5519 -1.5771 -1.5753 -1.6145
-1.6342 -1.6323 -1.6566 -1.6772 -1.6828 -1.6847
-1.7015 -1.7109 -1.7184 -1.7352 -1.7501 -1.7735
-1.7773 -1.7857 -1.8268 -1.8381 -1.8409 -1.8614
-1.8904 -1.9101 -1.9063 -1.9344 -1.9512 -1.9578
-1.9839 -1.9905 -2.0045 -2.0401 -2.0541 -2.0494
-2.0681 -2.0849 -2.0887 -2.1037 -2.1074 -2.1139
-2.1224 -2.1280 -2.1355 -2.1280 -2.1308 -2.1457
-2.1467 -2.1682 -2.1738 -2.1523 -2.1757 -2.1860
-2.1972 -2.2140 -2.2075 -2.2299 -2.2411 -2.2467
-2.2645 -2.2645 -2.2767 -2.2823 -2.2748 -2.2944
-2.3103 -2.2888 -2.2785 -2.2944 -2.2776 -2.2552
-2.2486 -2.2355 -2.2009 -2.1626 -2.1327 -2.0906
-2.0410 -1.9849 -1.9372 -1.8689 -1.8063 -1.7576
-1.6922 -1.6407 -1.5659 -1.4902 -1.4425 -1.3705
-1.3153 -1.2685 -1.1891 -1.1358 -1.0843 -0.9936
-0.9384 -0.8945 -0.8197 -0.7682 -0.7074 -0.6635
-0.6158 -0.5531 -0.5204 -0.4652 -0.4119 -0.3586
-0.3221 -0.2904 -0.2370 -0.1763 -0.1192 -0.0902
-0.0435 0.0136 0.0529 0.0949 0.1501 0.2025
0.2259 0.2605 0.3026 0.3400 0.3792 0.4213
0.4681 0.5046 0.5597 0.5868 0.6084 0.6514
0.6869 0.7281 0.7505 0.7926 0.8347 0.8543
0.8786 0.9085 0.9357 0.9647 0.9927 1.0133
1.0404 1.0554 1.0628 1.0647 1.0722 1.0872
1.0928 1.0844 1.0713 1.0741 1.0376 1.0086
1.0067 0.9768 0.9572 0.9188 0.8777 0.8534
0.8188 0.7973 0.7561 0.7262 0.7178 0.6822
0.6598 0.6364 0.6112 0.5896 0.5691 0.5401
0.5148 0.5139 0.4784 0.4737 0.4568 0.4185
0.4232 0.4073 0.3904 0.3717 0.3643 0.3558
0.3269 0.3072 0.2997 0.2960 0.2876 0.2764
0.2642 0.2605 0.2605 0.2315 0.2174 0.2165
0.1894 0.1997 0.1959 0.1782 0.1894 0.1679
0.1482 0.1464 0.1398 0.1305 0.1146 0.0912
0.0837 0.0687 0.0388 0.0313 0.0033 -0.0369
-0.0575 -0.0790 -0.1136 -0.1510 -0.1800 -0.1978
-0.2305 -0.2745 -0.2913 -0.3110 -0.3502 -0.3961
-0.4232 -0.4615 -0.4980 -0.5167 -0.5578 -0.5934
-0.6467 -0.6878 -0.7159 -0.7524 -0.7804 -0.8244
-0.8431 -0.8674 -0.9113 -0.9272 -0.9469 -0.9759
-0.9787 -0.9871 -1.0049 -0.9993 -1.0105 -1.0282
-1.0264 -1.0348 -1.0329 -1.0254 -1.0273 -1.0123
-1.0123 -1.0049 -0.9721 -0.9600 -0.9282 -0.8739
-0.8534 -0.8188 -0.7636 -0.7224 -0.6654 -0.5981
-0.5438 -0.4933 -0.4447 -0.3876 -0.3166 -0.2708
-0.2109 -0.1426 -0.1108 -0.0510 -0.0117 0.0266
0.0846 0.1080 0.1379 0.1837 0.2268 0.2529
0.2866 0.3156 0.3455 0.3876 0.4147 0.4643
0.5148 0.5466 0.5990 0.6457 0.6803 0.7168
0.7570 0.8225 0.8580 0.8917 0.9366 0.9674
1.0020 1.0198 1.0525 1.0955 1.1283 1.1666
1.1919 1.2199 1.2676 1.2966 1.3275 1.3752
1.4088 1.4434 1.4883 1.5454 1.5903 1.6155
1.6576 1.7071 1.7586 1.8072 1.8325 1.8858
1.9297 1.9531 2.0036 2.0363 2.0793 2.1196
2.1542 2.2028 2.2280 2.2561 2.2916 2.3085
2.3272 2.3571 2.3749 2.3945 2.4123 2.4048
2.4375 2.4469 2.4188 2.4431 2.4431 2.4478
2.4590 2.4450 2.4553 2.4534 2.4544 2.4544
2.4478 2.4431 2.4366 2.4328 2.4263 2.4197
2.4151 2.4197 2.4113 2.4020 2.3908 2.3851
2.3870 2.3861 2.3982 2.3786 2.3786 2.3954
2.3842 2.3777 2.3721 2.3730 2.3898 2.3879
2.3618 2.3711 2.3599 2.3234 2.3244 2.3094
2.2916 2.2776 2.2645 2.2439 2.2336 2.2364
2.2168 2.2271 2.2393 2.2280 2.2458 2.2710
2.2767 2.3010 2.3459 2.3515 2.3917 2.4291
2.4253 2.4730 2.4843 2.4974 2.5385 2.5376
2.5591 2.5722 2.5797 2.6096 2.6012 2.5993
2.6002 2.5731 2.5871 2.5843 2.5553 2.5338
2.5189 2.5142 2.4899 2.4833 2.4525 2.4263
2.4029 2.3487 2.3533 2.3318 2.2804 2.2626
2.2308 2.1962 2.1401 2.0877 2.0700 2.0129
1.9531 1.9334 1.8745 1.8165 1.7810 1.7183
1.6753 1.6304 1.5453 1.4752 1.4266 1.3602
1.2769 1.1890 1.1133 1.0441 0.9459 0.8496
0.7757 0.6822 0.5793 0.4886 0.4025 0.3315
0.2361 0.1426 0.0705 -0.0108 -0.0875 -0.1810
-0.2708 -0.3465 -0.4204 -0.4980 -0.5644 -0.6327
-0.7047 -0.7655 -0.8478 -0.9161 -0.9769 -1.0554
-1.1190 -1.1761 -1.2509 -1.3201 -1.3837 -1.4575
-1.5193 -1.5810 -1.6436 -1.7016 -1.7503 -1.7923
-1.8541 -1.9074 -1.9448 -2.0009 -2.0617 -2.0925
-2.1402 -2.1917 -2.2085 -2.2459 -2.3058 -2.3450
-2.3806 -2.4199 -2.4479 -2.4853 -2.5162 -2.5573
-2.6060 -2.6256 -2.6770 -2.7201 -2.7500 -2.8089
-2.8519 -2.8874 -2.9221 -2.9567 -2.9941 -3.0202
-3.0380 -3.0810 -3.1166 -3.1175 -3.1390 -3.1577
-3.1774 -3.2035 -3.2222 -3.2410 -3.2391 -3.2475
-3.2587 -3.2503 -3.2438 -3.2363 -3.2222 -3.2110
-3.1858 -3.1549 -3.1521 -3.1334 -3.0895 -3.0539
-3.0128 -2.9763 -2.9454 -2.9108 -2.8678 -2.8183
-2.7855 -2.7425 -2.6864 -2.6247 -2.5910 -2.5471
-2.4778 -2.4545 -2.4012 -2.3338 -2.2974 -2.2441
-2.1833 -2.1113 -2.0505 -1.9962 -1.9195 -1.8597
-1.7970 -1.7297 -1.6848 -1.6053 -1.5520 -1.5221
-1.4538 -1.4024 -1.3519 -1.3023 -1.2780 -1.2509
-1.1873 -1.1518 -1.1331 -1.0760 -1.0498 -1.0040
-0.9722 -0.9395 -0.8815 -0.8796 -0.8488 -0.8160
-0.8076 -0.7842 -0.7655 -0.7431 -0.7319 -0.7207
-0.7178 -0.7225 -0.7010 -0.6907 -0.6907 -0.6645
-0.6533 -0.6524 -0.6318 -0.6318 -0.6299 -0.6206
-0.6178 -0.6047 -0.5888 -0.5757 -0.5822 -0.5841
-0.5607 -0.5607 -0.5561 -0.5598 -0.5645 -0.5420
-0.5514 -0.5561 -0.5570 -0.5682 -0.5776 -0.5748
-0.5710 -0.5907 -0.6010 -0.6038 -0.6019 -0.6225
-0.6384 -0.6262 -0.6458 -0.6599 -0.6776 -0.6907
-0.6851 -0.6907 -0.6982 -0.7188 -0.7132 -0.7094
-0.7094 -0.7020 -0.7197 -0.7076 -0.7122 -0.7225
-0.7001 -0.6982 -0.7057 -0.7057 -0.6898 -0.6739
-0.6636 -0.6580 -0.6505 -0.6515 -0.6346 -0.6084
-0.5972 -0.5776 -0.5645 -0.5439 -0.5252 -0.4990
-0.4738 -0.4588 -0.4364 -0.4298 -0.4064 -0.3943
-0.3662 -0.3260 -0.3316 -0.3045 -0.2755 -0.2671
-0.2447 -0.2138 -0.1829 -0.1680 -0.1409 -0.1175
-0.0941 -0.0717 -0.0576 -0.0296 -0.0137 0.0069
0.0181 0.0247 0.0443 0.0424 0.0798 0.0967
0.0808 0.1051 0.0976 0.0939 0.0985 0.0845
0.0864 0.0817 0.0621 0.0368 0.0191 -0.0043
-0.0268 -0.0305 -0.0567 -0.0894 -0.1053 -0.1278
-0.1240 -0.1381 -0.1596 -0.1437 -0.1418 -0.1334
-0.1287 -0.1231 -0.0960 -0.0801 -0.0595 -0.0343
0.0078 0.0396 0.0639 0.1135 0.1369 0.1705
0.2239 0.2510 0.2902 0.3314 0.3744 0.4221
0.4502 0.5053 0.5484 0.5783 0.6363 0.6662
0.7204 0.7700 0.7878 0.8411 0.8766 0.9103
0.9636 0.9944 1.0178 1.0608 1.0936 1.1235
1.1581 1.1618 1.1852 1.1974 1.1852 1.1955
1.1908 1.1815 1.1572 1.1366 1.1487 1.1272
1.0982 1.0954 1.0926 1.0823 1.0590 1.0590
1.0674 1.0515 1.0459 1.0412 1.0374 1.0393
1.0477 1.0767 1.0898 1.0992 1.1123 1.1263
1.1478 1.1702 1.1871 1.2095 1.2357 1.2394
1.2666 1.2740 1.2675 1.2834 1.2778 1.2862
1.2806 1.2712 1.2694 1.2581 1.2628 1.2572
1.2404 1.2394 1.2413 1.2226 1.2198 1.2217
1.2076 1.2095 1.1861 1.1861 1.1983 1.1777
1.1787 1.1712 1.1665 1.1525 1.1263 1.1207
1.1160 1.0870 1.0664 1.0711 1.0421 1.0365
1.0131 0.9776 0.9991 0.9673 0.9215 0.9149
0.8990 0.8728 0.8513 0.8158 0.7887 0.7784
0.7382 0.7167 0.6998 0.6596 0.6362 0.5942
0.5567 0.5128 0.4651 0.4380 0.3912 0.3473
0.2874 0.2481 0.2014 0.1518 0.1144 0.0555
0.0330 -0.0203 -0.0689 -0.1063 -0.1605 -0.1839
-0.2372 -0.2924 -0.3214 -0.3579 -0.3962 -0.4439
-0.4888 -0.5168 -0.5543 -0.5963 -0.6244 -0.6487
-0.6880 -0.7029 -0.7198 -0.7628 -0.7722 -0.8002
-0.8198 -0.8096 -0.8329 -0.8367 -0.8217 -0.8198
-0.8227 -0.8142 -0.8086 -0.7937 -0.7731 -0.7637
-0.7282 -0.6899 -0.6618 -0.6300 -0.5861 -0.5290
-0.4925 -0.4486 -0.4000 -0.3551 -0.2915 -0.2466
-0.1998 -0.1596 -0.1016 -0.0446 -0.0025 0.0686
0.1219 0.1771 0.2182 0.2734 0.3257 0.3547
0.4174 0.4539 0.4922 0.5231 0.5390 0.5745
0.5913 0.6203 0.6446 0.6559 0.6755 0.6989
0.7045 0.6951 0.7092 0.7092 0.7120 0.7166
0.7036 0.7082 0.7036 0.6877 0.6942 0.6933
0.6858 0.6942 0.6895 0.6783 0.6774 0.6559
0.6456 0.6633 0.6559 0.6624 0.6689 0.6708
0.6792 0.6755 0.6961 0.7064 0.7101 0.7232
0.7391 0.7550 0.7634 0.7784 0.7821 0.7943
0.7999 0.8017 0.8335 0.8532 0.8607 0.8971
0.9252 0.9430 0.9785 0.9869 1.0159 1.0496
1.0458 1.0748 1.0944 1.1010 1.1103 1.1206
1.1365 1.1356 1.1356 1.1272 1.1300 1.1244
1.1047 1.0991 1.0851 1.0636 1.0318 1.0178
1.0103 0.9785 0.9495 0.9214 0.8943 0.8709
0.8429 0.8139 0.7793 0.7409 0.7138 0.6904
0.6493 0.6100 0.5651 0.5090 0.4772 0.4202
0.3594 0.3173 0.2705 0.2210 0.1527 0.1088
0.0648 0.0040 -0.0530 -0.1054 -0.1494 -0.2036
-0.2419 -0.2962 -0.3439 -0.3757 -0.4393 -0.4739
-0.5029 -0.5459 -0.5833 -0.6207 -0.6497 -0.6731
-0.6974 -0.7301 -0.7488 -0.7713 -0.8068 -0.8283
-0.8620 -0.8741 -0.8994 -0.9517 -0.9583 -0.9882
-1.0275 -1.0415 -1.0789 -1.1079 -1.1444 -1.1855
-1.1912 -1.2145 -1.2445 -1.2594 -1.2847 -1.3052
-1.3081 -1.3174 -1.3427 -1.3408 -1.3445 -1.3501
-1.3314 -1.3324 -1.3183 -1.3118 -1.3174 -1.2922
-1.2856 -1.2809 -1.2585 -1.2510 -1.2351 -1.2071
-1.1837 -1.1687 -1.1678 -1.1416 -1.1126 -1.1004
-1.0846 -1.0677 -1.0500 -1.0182 -1.0088 -1.0191
-0.9948 -0.9779 -0.9620 -0.9480 -0.9490 -0.9415
-0.9340 -0.9340 -0.9237 -0.9134 -0.9190 -0.8919
-0.8798 -0.8910 -0.8816 -0.8966 -0.9031 -0.8872
-0.8910 -0.9050 -0.8844 -0.8769 -0.8816 -0.8695
-0.8713 -0.8564 -0.8629 -0.8611 -0.8293 -0.8321
-0.8134 -0.7947 -0.8003 -0.7881 -0.7713 -0.7619
-0.7460 -0.7226 -0.7124 -0.6862 -0.6703 -0.6619
-0.6329 -0.6114 -0.5899 -0.5609 -0.5263 -0.5066
-0.4851 -0.4449 -0.4000 -0.3776 -0.3411 -0.2906
-0.2635 -0.2307 -0.2120 -0.1709 -0.1279 -0.1110
-0.0886 -0.0512 -0.0157 -0.0091 0.0283 0.0601
0.0797 0.1087 0.1256 0.1723 0.1873 0.2022
0.2481 0.2649 0.2939 0.3285 0.3528 0.3883
0.4257 0.4491 0.4847 0.5015 0.5389 0.5997
0.6062 0.6595 0.7128 0.7316 0.7867 0.8232
0.8569 0.8943 0.9307 0.9784 1.0317 1.0663
1.0916 1.1458 1.1842 1.2160 1.2543 1.2833
1.3226 1.3553 1.3712 1.3974 1.4311 1.4516
1.4750 1.5077 1.5255 1.5423 1.5676 1.6013
1.6387 1.6536 1.6882 1.7182 1.7284 1.7827
1.8070 1.8294 1.8734 1.8799 1.9099 1.9482
1.9641 2.0090 2.0361 2.0371 2.0791 2.0997
2.1175 2.1465 2.1549 2.1904 2.1988 2.1998
2.2185 2.2288 2.2447 2.2391 2.2353 2.2344
2.2306 2.2213 2.2073 2.1904 2.1811 2.1820
2.1568 2.1409 2.1324 2.0997 2.0904 2.0782
2.0445 2.0314 1.9912 1.9445 1.9314 1.8855
1.8425 1.8173 1.7658 1.7312 1.6835 1.6200
1.5919 1.5405 1.4797 1.4628 1.4226 1.3675
1.3450 1.3113 1.2730 1.2506 1.2234 1.2019
1.1870 1.1739 1.1748 1.1664 1.1524 1.1524
1.1570 1.1785 1.1916 1.1972 1.2216 1.2384
1.2487 1.2655 1.3020 1.3291 1.3487 1.3731
1.3946 1.4301 1.4423 1.4666 1.5002 1.5218
1.5395 1.5470 1.5657 1.5751 1.5760 1.5723
1.5816 1.5732 1.5479 1.5479 1.5348 1.5096
1.4900 1.4563 1.4226 1.3899 1.3459 1.3123
1.2505 1.1888 1.1299 1.0607 1.0233 0.9438
0.8671 0.8138 0.7325 0.6595 0.5753 0.4902
0.4210 0.3472 0.2621 0.1947 0.1349 0.0470
-0.0213 -0.0877 -0.1644 -0.2224 -0.3028 -0.3664
-0.4141 -0.4777 -0.5413 -0.6049 -0.6582 -0.7199
-0.7713 -0.8265 -0.8826 -0.9032 -0.9499 -0.9967
-1.0285 -1.0697 -1.0790 -1.1164 -1.1473 -1.1604
-1.1940 -1.1950 -1.2230 -1.2539 -1.2651 -1.2829
-1.3091 -1.3259 -1.3259 -1.3539 -1.3727 -1.3698
-1.3717 -1.3727 -1.3727 -1.3839 -1.3717 -1.3465
-1.3521 -1.3390 -1.3250 -1.3147 -1.2941 -1.2866
-1.2838 -1.2698 -1.2389 -1.2305 -1.2118 -1.1744
-1.1838 -1.1800 -1.1660 -1.1650 -1.1529 -1.1463
-1.1370 -1.1304 -1.1379 -1.1351 -1.1463 -1.1613
-1.1445 -1.1492 -1.1716 -1.1828 -1.1968 -1.2099
-1.2193 -1.2389 -1.2614 -1.2614 -1.2801 -1.2726
-1.2791 -1.3081 -1.2773 -1.2735 -1.2735 -1.2511
-1.2436 -1.2286 -1.2202 -1.2062 -1.1875 -1.1894
-1.1819 -1.1510 -1.1323 -1.1136 -1.0940 -1.0743
-1.0388 -1.0145 -1.0005 -0.9724 -0.9434 -0.9257
-0.9023 -0.8686 -0.8387 -0.8218 -0.8059 -0.7844
-0.7667 -0.7480 -0.7339 -0.7274 -0.7265 -0.7059
-0.7040 -0.7227 -0.7237 -0.7265 -0.7171 -0.7106
-0.7237 -0.7293 -0.7218 -0.7367 -0.7508 -0.7396
-0.7498 -0.7545 -0.7414 -0.7405 -0.7377 -0.7349
-0.7237 -0.7171 -0.7134 -0.6900 -0.6834 -0.6713
-0.6507 -0.6488 -0.6329 -0.6199 -0.6180 -0.6114
-0.5983 -0.5750 -0.5637 -0.5563 -0.5254 -0.4983
-0.5020 -0.4721 -0.4197 -0.4094 -0.3833 -0.3412
-0.3131 -0.2729 -0.2346 -0.2168 -0.1719 -0.1158
-0.0962 -0.0690 -0.0316 0.0030 0.0366 0.0516
0.0684 0.0881 0.0984 0.1199 0.1535 0.1722
0.1853 0.1956 0.2087 0.2312 0.2358 0.2583
0.2545 0.2527 0.2686 0.2358 0.2517 0.2611
0.2499 0.2470 0.2283 0.2293 0.2096 0.1900
0.1713 0.1507 0.1451 0.1330 0.1199 0.0984
0.0899 0.0853 0.0666 0.0572 0.0385 0.0048
-0.0111 -0.0148 -0.0363 -0.0644 -0.0793 -0.1046
-0.1195 -0.1354 -0.1757 -0.1953 -0.2121 -0.2355
-0.2514 -0.2832 -0.3141 -0.3309 -0.3618 -0.3814
-0.3908 -0.4235 -0.4188 -0.4310 -0.4637 -0.4609
-0.4899 -0.4880 -0.4665 -0.4815 -0.4918 -0.4899
-0.4871 -0.4815 -0.4721 -0.4618 -0.4375 -0.4385
-0.4413 -0.4207 -0.4226 -0.4113 -0.3992 -0.4067
-0.3936 -0.4001 -0.4113 -0.4020 -0.4039 -0.4085
-0.4300 -0.4450 -0.4534 -0.4759 -0.4890 -0.5011
-0.5329 -0.5404 -0.5348 -0.5675 -0.5797 -0.5872
-0.5993 -0.6012 -0.6246 -0.6283 -0.6283 -0.6423
-0.6339 -0.6320 -0.6414 -0.6302 -0.6358 -0.6395
-0.6377 -0.6620 -0.6498 -0.6274 -0.6377 -0.6320
-0.6143 -0.6236 -0.6283 -0.6190 -0.6143 -0.6124
-0.6236 -0.6264 -0.6162 -0.6190 -0.6199 -0.6096
-0.6049 -0.5974 -0.6012 -0.6068 -0.5956 -0.5909
-0.5881 -0.5909 -0.5881 -0.5844 -0.5872 -0.5844
-0.5638 -0.5572 -0.5759 -0.5470 -0.5301 -0.5264
-0.4965 -0.5002 -0.4880 -0.4534 -0.4600 -0.4525
-0.4244 -0.4357 -0.4198 -0.4095 -0.4114 -0.3824
-0.3898 -0.3908 -0.3730 -0.3721 -0.3655 -0.3627
-0.3683 -0.3637 -0.3599 -0.3524 -0.3412 -0.3431
-0.3431 -0.3300 -0.3169 -0.3085 -0.2907 -0.2851
-0.2561 -0.2215 -0.2103 -0.1710 -0.1448 -0.1205
-0.0887 -0.0625 -0.0064 0.0226 0.0488 0.1039
0.1310 0.1563 0.2068 0.2451 0.2816 0.3181
0.3405 0.3845 0.4238 0.4434 0.4808 0.5145
0.5388 0.5753 0.6089 0.6398 0.6669 0.6893
0.6978 0.7006 0.7314 0.7614 0.7716 0.7773
0.8025 0.8156 0.8212 0.8511 0.8483 0.8577
0.8904 0.8876 0.8941 0.9072 0.9091 0.9157
0.9157 0.9157 0.9446 0.9372 0.9119 0.9213
0.8998 0.8970 0.9054 0.8941 0.8820 0.8558
0.8418 0.8025 0.7763 0.7670 0.7296 0.7006
0.6734 0.6426 0.5986 0.5453 0.5173 0.4845
0.4350 0.3910 0.3452 0.3153 0.2666 0.2189
0.1825 0.1254 0.0908 0.0422 -0.0027 -0.0392
-0.0887 -0.1112 -0.1514 -0.1944 -0.2300 -0.2655
-0.2889 -0.3310 -0.3627 -0.3861 -0.4151 -0.4394
-0.4637 -0.4703 -0.5049 -0.5152 -0.5152 -0.5386
-0.5264 -0.5442 -0.5507 -0.5302 -0.5273 -0.5189
-0.5002 -0.4955 -0.4815 -0.4357 -0.4245 -0.3899
-0.3356 -0.3076 -0.2739 -0.2365 -0.1823 -0.1262
-0.0953 -0.0607 -0.0046 0.0310 0.0562 0.0945
0.1217 0.1563 0.1759 0.1815 0.2114 0.2180
0.2255 0.2348 0.2414 0.2545 0.2227 0.2124
0.2245 0.2124 0.1927 0.1834 0.1778 0.1581
0.1422 0.1198 0.1048 0.0964 0.0646 0.0515
0.0394 -0.0037 -0.0214 -0.0392 -0.0570 -0.0588
-0.0803 -0.0972 -0.1093 -0.1121 -0.1112 -0.1271
-0.1187 -0.1084 -0.1196 -0.1131 -0.1112 -0.0972
-0.0785 -0.0860 -0.0757 -0.0579 -0.0570 -0.0457
-0.0308 -0.0233 -0.0139 0.0104 0.0253 0.0366
0.0478 0.0450 0.0721 0.0768 0.0609 0.0814
0.0786 0.0683 0.0740 0.0562 0.0450 0.0375
0.0272 0.0244 0.0122 0.0048 -0.0093 -0.0270
-0.0298 -0.0420 -0.0560 -0.0645 -0.0747 -0.1084
-0.1196 -0.1224 -0.1533 -0.1561 -0.1860 -0.2057
-0.2103 -0.2440 -0.2487 -0.2786 -0.2936 -0.2870
-0.3095 -0.3179 -0.3385 -0.3618 -0.3749 -0.3927
-0.4151 -0.4367 -0.4516 -0.4797 -0.5012 -0.5199
-0.5508 -0.5713 -0.5844 -0.6031 -0.6256 -0.6424
-0.6518 -0.6583 -0.6733 -0.6817 -0.6920 -0.6976
-0.6892 -0.6985 -0.6929 -0.6892 -0.7004 -0.6938
-0.6901 -0.7013 -0.7041 -0.6873 -0.6873 -0.6826
-0.6602 -0.6677 -0.6564 -0.6443 -0.6424 -0.6368
-0.6377 -0.6125 -0.5975 -0.5956 -0.5891 -0.5826
-0.5760 -0.5573 -0.5442 -0.5367 -0.5218 -0.5274
-0.5124 -0.5003 -0.4993 -0.4685 -0.4666 -0.4554
-0.4142 -0.4161 -0.4030 -0.3759 -0.3637 -0.3273
-0.3001 -0.2702 -0.2422 -0.2104 -0.1730 -0.1477
-0.1150 -0.0850 -0.0364 -0.0121 0.0085 0.0459
0.0590 0.1001 0.1291 0.1497 0.1815 0.1843
0.2161 0.2423 0.2404 0.2507 0.2741 0.2918
0.2909 0.3077 0.3133 0.3199 0.3199 0.2993
0.3161 0.3208 0.3133 0.3059 0.2928 0.3077
0.3133 0.3021 0.3021 0.2900 0.2731 0.2797
0.2806 0.2759 0.2815 0.2703 0.2525 0.2600
0.2497 0.2460 0.2432 0.2404 0.2516 0.2226
0.2245 0.2264 0.2105 0.2348 0.2161 0.2011
0.2067 0.1946 0.2048 0.1974 0.1833 0.1852
0.1946 0.2020 0.2095 0.2020 0.1861 0.2095
0.2077 0.2011 0.2198 0.2320 0.2451 0.2432
0.2460 0.2432 0.2553 0.2759 0.2712 0.2853
0.2965 0.2862 0.2834 0.2909 0.2974 0.3021
0.3096 0.3086 0.3096 0.3096 0.2965 0.3049
0.3105 0.2871 0.2806 0.2787 0.2638 0.2479
0.2348 0.2217 0.2217 0.2151 0.1871 0.1946
0.1871 0.1646 0.1665 0.1440 0.1356 0.1440
0.1328 0.1235 0.1216 0.1300 0.1094 0.0935
0.0973 0.0720 0.0730 0.0664 0.0430 0.0281
-0.0037 -0.0224 -0.0467 -0.0785 -0.1113 -0.1468
-0.1664 -0.2048 -0.2534 -0.2880 -0.3310 -0.3759
-0.4208 -0.4629 -0.4919 -0.5564 -0.6172 -0.6509
-0.6948 -0.7266 -0.7631 -0.8089 -0.8426 -0.8725
-0.9211 -0.9473 -0.9520 -0.9885 -0.9969 -1.0016
-1.0100 -1.0212 -1.0549 -1.0408 -1.0446 -1.0652
-1.0436 -1.0436 -1.0558 -1.0465 -1.0436 -1.0455
-1.0231 -1.0081 -0.9978 -0.9819 -0.9660 -0.9398
-0.9174 -0.8950 -0.8725 -0.8454 -0.8183 -0.7921
-0.7724 -0.7425 -0.7210 -0.7032 -0.6555 -0.6340
-0.6088 -0.5779 -0.5630 -0.5125 -0.4769 -0.4536
-0.4049 -0.3675 -0.3348 -0.2974 -0.2581 -0.2151
-0.1814 -0.1440 -0.0935 -0.0449 -0.0168 0.0243
0.0748 0.1010 0.1450 0.1730 0.1964 0.2404
0.2712 0.3161 0.3432 0.3591 0.3984 0.4208
0.4470 0.4891 0.4994 0.5087 0.5303 0.5621
0.5779 0.5826 0.6191 0.6397 0.6677 0.6715
0.6761 0.7023 0.6920 0.7005 0.7023 0.6948
0.7135 0.7051 0.6958 0.7033 0.6846 0.6799
0.6715 0.6705 0.6771 0.6649 0.6855 0.6883
0.6855 0.6883 0.6948 0.7070 0.7005 0.7126
0.7322 0.7407 0.7416 0.7528 0.7575 0.7584
0.7790 0.7940 0.8033 0.8052 0.8267 0.8407
0.8379 0.8594 0.8622 0.8632 0.8688 0.8875
0.8940 0.8678 0.8856 0.8940 0.8959 0.9006
0.8875 0.9062 0.9221 0.9211 0.9202 0.9240
0.9277 0.9389 0.9576 0.9707 0.9857 0.9978
1.0100 1.0343 1.0502 1.0521 1.0754 1.0942
1.1194 1.1362 1.1381 1.1774 1.1886 1.2120
1.2410 1.2419 1.2803 1.2915 1.3055 1.3466
1.3569 1.3691 1.3943 1.4205 1.4383 1.4523
1.4654 1.4804 1.5047 1.5150 1.5159 1.5271
1.5515 1.5711 1.5664 1.5683 1.5748 1.5795
1.5861 1.5842 1.5935 1.5963 1.5804 1.5655
1.5608 1.5524 1.5402 1.5281 1.5075 1.4832
1.4486 1.4243 1.4009 1.3588 1.3233 1.2812
1.2344 1.1951 1.1503 1.1100 1.0754 1.0268
0.9819 0.9520 0.9062 0.8622 0.8267 0.7846
0.7332 0.6920 0.6593 0.6172 0.5929 0.5592
0.5153 0.4760 0.4274 0.3909 0.3675 0.3338
0.2889 0.2534 0.2160 0.1758 0.1449 0.1122
0.0748 0.0299 0.0065 -0.0187 -0.0543 -0.0842
-0.1169 -0.1440 -0.1796 -0.2142 -0.2273 -0.2451
-0.2881 -0.3030 -0.3264 -0.3648 -0.3750 -0.4199
-0.4545 -0.4854 -0.5350 -0.5827 -0.6126 -0.6434
-0.7024 -0.7444 -0.7968 -0.8155 -0.8492 -0.9128
-0.9333 -0.9801 -1.0138 -1.0362 -1.0839 -1.1082
-1.1400 -1.1868 -1.1943 -1.2111 -1.2261 -1.2448
-1.2766 -1.2728 -1.2878 -1.2981 -1.2943 -1.2981
-1.2859 -1.2925 -1.2981 -1.2850 -1.2784 -1.2925
-1.2906 -1.2635 -1.2700 -1.2719 -1.2513 -1.2410
-1.2354 -1.2307 -1.2120 -1.1971 -1.1802 -1.1587
-1.1382 -1.1045 -1.0886 -1.0746 -1.0456 -1.0175
-0.9801 -0.9633 -0.9362 -0.9119 -0.9034 -0.8660
-0.8380 -0.8099 -0.7950 -0.7837 -0.7491 -0.7323
-0.7201 -0.7024 -0.6771 -0.6640 -0.6481 -0.6257
-0.6126 -0.5930 -0.5873 -0.5733 -0.5705 -0.5593
-0.5284 -0.5368 -0.5275 -0.4957 -0.5013 -0.5097
-0.5069 -0.5312 -0.5266 -0.5144 -0.5462 -0.5387
-0.5546 -0.5696 -0.5640 -0.6042 -0.6014 -0.6154
-0.6379 -0.6435 -0.6696 -0.6855 -0.7145 -0.7201
-0.7183 -0.7351 -0.7435 -0.7445 -0.7360 -0.7557
-0.7548 -0.7267 -0.7220 -0.7033 -0.6930 -0.6790
-0.6453 -0.6248 -0.5892 -0.5518 -0.5294 -0.5004
-0.4686 -0.4433 -0.4134 -0.3826 -0.3536 -0.3068
-0.2872 -0.2628 -0.2142 -0.1862 -0.1347 -0.0945
-0.0880 -0.0393 0.0168 0.0364 0.0682 0.0991
0.1309 0.1804 0.1963 0.2188 0.2711 0.2936
0.3142 0.3431 0.3572 0.3880 0.4208 0.4413
0.4713 0.4974 0.5133 0.5386 0.5685 0.6013
0.6256 0.6443 0.6901 0.7023 0.7275 0.7808
0.7874 0.8220 0.8481 0.8584 0.8968 0.9220
0.9566 0.9725 0.9940 1.0277 1.0286 1.0614
1.0960 1.1091 1.1259 1.1446 1.1624 1.1652
1.1820 1.2016 1.2082 1.2213 1.2278 1.2306
1.2334 1.2372 1.2297 1.2203 1.2194 1.2157
1.2016 1.1745 1.1586 1.1390 1.1268 1.1119
1.0632 1.0436 1.0267 0.9762 0.9463 0.9070
0.8715 0.8425 0.7901 0.7630 0.7219 0.6817
0.6489 0.6003 0.5638 0.5217 0.4890 0.4441
0.4020 0.3646 0.3123 0.2833 0.2356 0.1898
0.1505 0.1093 0.0878 0.0467 0.0233 0.0008
-0.0618 -0.0824 -0.1011 -0.1282 -0.1497 -0.1862
-0.1881 -0.2114 -0.2376 -0.2554 -0.2816 -0.2937
-0.3087 -0.3190 -0.3489 -0.3527 -0.3498 -0.3779
-0.3835 -0.3947 -0.4172 -0.4396 -0.4565 -0.4621
-0.4798 -0.5032 -0.5210 -0.5331 -0.5509 -0.5659
-0.5986 -0.6257 -0.6154 -0.6547 -0.6940 -0.6968
-0.7295 -0.7426 -0.7698 -0.7997 -0.8090 -0.8492
-0.8754 -0.8951 -0.9156 -0.9428 -0.9811 -1.0054
-1.0269 -1.0447 -1.0802 -1.0980 -1.1120 -1.1494
-1.1560 -1.1747 -1.1981 -1.2214 -1.2561 -1.2542
-1.2738 -1.3019 -1.3009 -1.3365 -1.3711 -1.3776
-1.4132 -1.4375 -1.4571 -1.5029 -1.5104 -1.5301
-1.5740 -1.5918 -1.6133 -1.6423 -1.6685 -1.6862
-1.6965 -1.7021 -1.7227 -1.7274 -1.7208 -1.7321
-1.7190 -1.7171 -1.7171 -1.6975 -1.6890 -1.6769
-1.6713 -1.6470 -1.6142 -1.5909 -1.5740 -1.5516
-1.5086 -1.4936 -1.4702 -1.4422 -1.4019 -1.3449
-1.3290 -1.3028 -1.2533 -1.2149 -1.1738 -1.1354
-1.1036 -1.0587 -1.0354 -1.0195 -0.9746 -0.9428
-0.9185 -0.8970 -0.8717 -0.8624 -0.8446 -0.8137
-0.8006 -0.7847 -0.7782 -0.7520 -0.7389 -0.7333
-0.7080 -0.7052 -0.6781 -0.6594 -0.6557 -0.6426
-0.6323 -0.6042 -0.5837 -0.5734 -0.5500 -0.5201
-0.5079 -0.4920 -0.4658 -0.4630 -0.4481 -0.4097
-0.3938 -0.3676 -0.3368 -0.3228 -0.2891 -0.2638
-0.2423 -0.2096 -0.1834 -0.1591 -0.1254 -0.1058
-0.0936 -0.0572 -0.0357 0.0046 0.0223 0.0139
0.0457 0.0466 0.0522 0.0709 0.0709 0.0812
0.0766 0.0644 0.0681 0.0597 0.0289 0.0429
0.0532 0.0345 0.0186 0.0092 0.0120 0.0008
-0.0011 0.0064 0.0158 0.0261 0.0242 0.0363
0.0420 0.0363 0.0625 0.0887 0.0943 0.1130
0.1317 0.1504 0.1691 0.1944 0.2093 0.2234
0.2608 0.2636 0.2851 0.3291 0.3384 0.3646
0.3824 0.3964 0.4375 0.4572 0.4693 0.5021
0.5357 0.5638 0.5937 0.6218 0.6573 0.6713
0.6844 0.7312 0.7508 0.7658 0.7882 0.8097
0.8425 0.8621 0.8715 0.9070 0.9407 0.9453
0.9771 0.9902 1.0192 1.0585 1.0660 1.1052
1.1202 1.1455 1.1857 1.1997 1.2334 1.2680
1.2857 1.3259 1.3662 1.3821 1.4054 1.4316
1.4503 1.4774 1.4961 1.4999 1.5158 1.5289
1.5373 1.5401 1.5429 1.5382 1.5326 1.5336
1.5139 1.4961 1.4774 1.4653 1.4466 1.4101
1.3933 1.3605 1.3241 1.2913 1.2511 1.2287
1.1885 1.1483 1.1202 1.0837 1.0463 1.0117
0.9790 0.9304 0.8958 0.8686 0.8247 0.7919
0.7592 0.7274 0.6938 0.6526 0.6367 0.5974
0.5572 0.5525 0.5273 0.5002 0.4768 0.4618
0.4450 0.4048 0.4020 0.3954 0.3655 0.3533
0.3384 0.3206 0.3113 0.2954 0.2813 0.2748
0.2692 0.2645 0.2514 0.2533 0.2514 0.2449
0.2449 0.2336 0.2336 0.2262 0.2374 0.2458
0.2374 0.2458 0.2355 0.2402 0.2486 0.2243
0.2383 0.2486 0.2318 0.2336 0.2196 0.2243
0.2402 0.2336 0.2261 0.2355 0.2374 0.2290
0.2271 0.2131 0.2346 0.2449 0.2299 0.2430
0.2411 0.2523 0.2692 0.2467 0.2439 0.2514
0.2402 0.2402 0.2280 0.2215 0.2280 0.1990
0.1897 0.1859 0.1579 0.1588 0.1541 0.1382
0.1261 0.0962 0.1018 0.0887 0.0615 0.0672
0.0503 0.0485 0.0428 0.0157 0.0054 0.0232
0.0139 -0.0105 -0.0039 -0.0161 -0.0039 -0.0123
-0.0338 -0.0114 -0.0254 -0.0451 -0.0488 -0.0694
-0.0853 -0.0806 -0.0965 -0.1189 -0.1161 -0.1386
-0.1451 -0.1461 -0.1853 -0.1863 -0.1807 -0.1984
-0.1938 -0.2031 -0.2106 -0.2115 -0.2237 -0.2199
-0.2284 -0.2424 -0.2312 -0.2349 -0.2508 -0.2489
-0.2574 -0.2639 -0.2592 -0.2620 -0.2592 -0.2564
-0.2620 -0.2527 -0.2461 -0.2508 -0.2368 -0.2237
-0.2097 -0.1919 -0.1807 -0.1863 -0.1797 -0.1620
-0.1741 -0.1610 -0.1433 -0.1339 -0.1395 -0.1218
-0.1012 -0.1292 -0.1077 -0.0965 -0.0956 -0.0694
-0.0713 -0.0666 -0.0516 -0.0600 -0.0628 -0.0441
-0.0395 -0.0432 -0.0479 -0.0432 -0.0301 -0.0385
-0.0544 -0.0208 -0.0133 -0.0348 -0.0254 -0.0339
-0.0226 -0.0226 -0.0413 -0.0133 -0.0245 -0.0376
-0.0264 -0.0488 -0.0385 -0.0348 -0.0619 -0.0629
-0.0657 -0.0703 -0.0928 -0.1171 -0.1283 -0.1386
-0.1536 -0.1816 -0.2041 -0.2303 -0.2527 -0.2592
-0.2808 -0.3051 -0.3247 -0.3584 -0.3649 -0.3733
-0.4051 -0.4182 -0.4351 -0.4463 -0.4687 -0.4977
-0.4977 -0.5080 -0.5361 -0.5426 -0.5501 -0.5697
-0.5772 -0.6025 -0.6202 -0.6230 -0.6464 -0.6558
-0.6502 -0.6576 -0.6735 -0.6707 -0.6689 -0.6595
-0.6661 -0.6950 -0.6679 -0.6520 -0.6614 -0.6511
-0.6483 -0.6455 -0.6408 -0.6240 -0.6174 -0.6137
-0.5959 -0.5903 -0.5763 -0.5389 -0.5202 -0.5211
-0.4856 -0.4697 -0.4828 -0.4426 -0.4238 -0.4182
-0.3846 -0.3864 -0.3696 -0.3359 -0.3453 -0.3238
-0.3013 -0.2985 -0.2621 -0.2415 -0.2321 -0.1985
-0.1816 -0.1648 -0.1358 -0.1255 -0.1096 -0.0881
-0.0844 -0.0582 -0.0339 -0.0227 0.0026 0.0110
0.0306 0.0531 0.0643 0.0811 0.0811 0.0849
0.1027 0.1157 0.1195 0.1363 0.1401 0.1522
0.1784 0.1672 0.1868 0.2018 0.1934 0.2270
0.2392 0.2560 0.2916 0.3112 0.3402 0.3598
0.3832 0.4215 0.4440 0.4674 0.5038 0.5179
0.5347 0.5824 0.5983 0.6235 0.6563 0.6656
0.6927 0.7049 0.7105 0.7264 0.7573 0.7694
0.7769 0.8022 0.8031 0.8190 0.8349 0.8461
0.8555 0.8658 0.8910 0.8882 0.8919 0.8985
0.8938 0.9106 0.9125 0.9116 0.9284 0.9359
0.9265 0.9275 0.9303 0.9480 0.9742 0.9733
0.9789 0.9976 1.0079 1.0098 1.0163 1.0191
1.0322 1.0547 1.0481 1.0734 1.0836 1.0743
1.1042 1.1061 1.1126 1.1192 1.1126 1.1229
1.1164 1.1051 1.1070 1.0921 1.0715 1.0640
1.0509 1.0425 1.0172 0.9967 0.9742 0.9593
0.9387 0.8910 0.8732 0.8555 0.8330 0.7947
0.7619 0.7423 0.7011 0.6731 0.6460 0.6132
0.5749 0.5422 0.5132 0.4795 0.4599 0.4234
0.3916 0.3645 0.3177 0.2981 0.2560 0.2064
0.1915 0.1541 0.1195 0.0858 0.0521 0.0353
0.0016 -0.0264 -0.0517 -0.0891 -0.1228 -0.1415
-0.1611 -0.1751 -0.1789 -0.2022 -0.2013 -0.2172
-0.2303 -0.2200 -0.2425 -0.2481 -0.2565 -0.2771
-0.2771 -0.2574 -0.2640 -0.2752 -0.2733 -0.2948
-0.2930 -0.2874 -0.2864 -0.2799 -0.2827 -0.2658
-0.2621 -0.2565 -0.2369 -0.2518 -0.2322 -0.1966
-0.1994 -0.1761 -0.1630 -0.1546 -0.1284 -0.1256
-0.0975 -0.0573 -0.0620 -0.0601 -0.0236 0.0072
0.0194 0.0390 0.0474 0.0633 0.0905 0.1064
0.1381 0.1522 0.1559 0.1671 0.1793 0.1952
0.2045 0.2167 0.2279 0.2429 0.2363 0.2270
0.2270 0.2242 0.2261 0.2073 0.1999 0.1690
0.1409 0.1344 0.0923 0.0689 0.0390 -0.0040
-0.0395 -0.0863 -0.1228 -0.1705 -0.2275 -0.2696
-0.3061 -0.3594 -0.4230 -0.4548 -0.5015 -0.5567
-0.5773 -0.6306 -0.6792 -0.7026 -0.7550 -0.7746
-0.7924 -0.8373 -0.8494 -0.8597 -0.8840 -0.9102
-0.9270 -0.9261 -0.9336 -0.9495 -0.9495 -0.9429
-0.9336 -0.9298 -0.9308 -0.9214 -0.9093 -0.8868
-0.8737 -0.8475 -0.8279 -0.8214 -0.7961 -0.7952
-0.7783 -0.7531 -0.7344 -0.7063 -0.7091 -0.6942
-0.6652 -0.6633 -0.6512 -0.6371 -0.6297 -0.6053
-0.5932 -0.5810 -0.5567 -0.5633 -0.5567 -0.5268
-0.5137 -0.5081 -0.4884 -0.4884 -0.4894 -0.4632
-0.4585 -0.4417 -0.4220 -0.4174 -0.4071 -0.4164
-0.3931 -0.3622 -0.3753 -0.3631 -0.3500 -0.3491
-0.3182 -0.3108 -0.3126 -0.2911 -0.2865 -0.2790
-0.2528 -0.2500 -0.2388 -0.2182 -0.2154 -0.2014
-0.1724 -0.1424 -0.1340 -0.1265 -0.1144 -0.0975
-0.0873 -0.0723 -0.0424 -0.0414 -0.0311 -0.0181
-0.0124 0.0072 0.0091 0.0193 0.0381 0.0315
0.0352 0.0427 0.0437 0.0596 0.0614 0.0568
0.0745 0.0773 0.0764 0.0867 0.0792 0.0904
0.1063 0.0848 0.0801 0.0829 0.0755 0.0857
0.0698 0.0642 0.0801 0.0530 0.0427 0.0380
0.0250 0.0250 0.0156 0.0091 -0.0050 -0.0087
-0.0059 -0.0125 -0.0153 -0.0312 -0.0246 -0.0012
-0.0227 -0.0274 -0.0265 -0.0340 -0.0143 -0.0171
-0.0087 0.0091 0.0081 0.0249 0.0231 0.0278
0.0465 0.0278 0.0390 0.0549 0.0493 0.0539
0.0530 0.0642 0.0614 0.0539 0.0726 0.0867
0.0773 0.0726 0.0895 0.0998 0.0988 0.0876
0.0885 0.1129 0.1138 0.1026 0.1054 0.1016
0.1072 0.1082 0.0839 0.0979 0.1147 0.0998
0.1007 0.0913 0.1007 0.0979 0.0848 0.0876
0.0689 0.0754 0.0857 0.0885 0.0904 0.0988
0.1119 0.1222 0.1381 0.1493 0.1662 0.1792
0.1942 0.2185 0.2382 0.2625 0.2868 0.2905
0.3064 0.3457 0.3625 0.3672 0.3859 0.4102
0.4327 0.4355 0.4373 0.4635 0.4682 0.4850
0.5131 0.5168 0.5224 0.5084 0.5150 0.5187
0.5066 0.5094 0.5168 0.5084 0.4972 0.4916
0.4691 0.4691 0.4598 0.4532 0.4523 0.4299
0.4280 0.4271 0.4168 0.4140 0.4196 0.4027
0.4018 0.4009 0.3822 0.3831 0.3681 0.3625
0.3607 0.3382 0.3214 0.3195 0.3045 0.2915
0.2868 0.2709 0.2718 0.2568 0.2381 0.2494
0.2456 0.2344 0.2251 0.2017 0.1970 0.1998
0.1876 0.1867 0.1848 0.1774 0.1680 0.1689
0.1764 0.1624 0.1643 0.1708 0.1577 0.1624
0.1615 0.1409 0.1399 0.1493 0.1334 0.1362
0.1418 0.1250 0.1231 0.1072 0.0960 0.0866
0.0735 0.0754 0.0558 0.0436 0.0249 0.0034
0.0053 -0.0218 -0.0415 -0.0574 -0.0733 -0.0873
-0.1182 -0.1313 -0.1472 -0.1649 -0.1855 -0.2070
-0.2005 -0.2136 -0.2285 -0.2313 -0.2426 -0.2528
-0.2556 -0.2528 -0.2678 -0.2416 -0.2360 -0.2603
-0.2351 -0.2285 -0.2117 -0.1958 -0.1892 -0.1631
-0.1490 -0.1275 -0.1079 -0.0957 -0.0770 -0.0471
-0.0200 0.0099 0.0352 0.0576 0.0848 0.1053
0.1315 0.1530 0.1680 0.1904 0.2091 0.2232
0.2419 0.2587 0.2624 0.2783 0.2858 0.2886
0.2970 0.2858 0.3055 0.3195 0.2914 0.2811
0.2896 0.2877 0.2774 0.2568 0.2484 0.2727
0.2456 0.2288 0.2447 0.2082 0.1886 0.1811
0.1633 0.1596 0.1427 0.1343 0.1324 0.1147
0.0960 0.0791 0.0614 0.0530 0.0342 0.0099
0.0062 -0.0069 -0.0293 -0.0415 -0.0546 -0.0742
-0.0855 -0.0957 -0.1201 -0.1229 -0.1332 -0.1621
-0.1752 -0.1762 -0.1706 -0.2080 -0.2267 -0.2173
-0.2332 -0.2444 -0.2622 -0.2585 -0.2566 -0.2744
-0.2847 -0.2875 -0.3043 -0.3333 -0.3361 -0.3595
-0.3735 -0.3698 -0.3838 -0.3941 -0.4128 -0.4268
-0.4268 -0.4296 -0.4380 -0.4399 -0.4418 -0.4352
-0.4287 -0.4408 -0.4380 -0.4249 -0.4193 -0.4053
-0.3988 -0.3819 -0.3698 -0.3754 -0.3698 -0.3623
-0.3352 -0.3296 -0.3258 -0.3118 -0.3071 -0.3024
-0.3155 -0.2921 -0.3062 -0.3352 -0.3314 -0.3501
-0.3455 -0.3520 -0.3791 -0.3763 -0.3857 -0.4175
-0.4119 -0.4315 -0.4614 -0.4521 -0.4848 -0.5072
-0.5054 -0.5372 -0.5475 -0.5465 -0.5699 -0.5746
-0.6017 -0.6204 -0.6185 -0.6391 -0.6326 -0.6410
-0.6466 -0.6457 -0.6653 -0.6503 -0.6475 -0.6681
-0.6559 -0.6391 -0.6457 -0.6372 -0.6363 -0.6400
-0.6195 -0.6251 -0.6204 -0.5998 -0.6026 -0.5933
-0.5858 -0.5895 -0.5774 -0.5615 -0.5680 -0.5577
-0.5484 -0.5596 -0.5465 -0.5447 -0.5419 -0.5400
-0.5400 -0.5166 -0.5297 -0.5428 -0.5316 -0.5381
-0.5437 -0.5419 -0.5521 -0.5503 -0.5475 -0.5811
-0.5942 -0.5942 -0.6148 -0.6232 -0.6307 -0.6447
-0.6634 -0.6728 -0.6915 -0.7027 -0.7046 -0.7289
-0.7513 -0.7635 -0.7541 -0.7757 -0.8112 -0.8112
-0.8336 -0.8523 -0.8551 -0.8720 -0.8823 -0.8935
-0.9178 -0.9346 -0.9346 -0.9524 -0.9795 -0.9823
-1.0029 -1.0188 -1.0384 -1.0656 -1.0656 -1.0880
-1.0983 -1.1011 -1.1226 -1.1254 -1.1310 -1.1441
-1.1404 -1.1264 -1.1310 -1.1282 -1.1301 -1.1226
-1.0983 -1.0927 -1.0712 -1.0515 -1.0300 -1.0254
-1.0291 -0.9964 -0.9655 -0.9505 -0.9225 -0.8851
-0.8804 -0.8486 -0.8047 -0.7888 -0.7691 -0.7392
-0.6971 -0.6625 -0.6307 -0.6008 -0.5774 -0.5278
-0.4858 -0.4661 -0.4259 -0.3857 -0.3586 -0.3202
