Archivo de aceleración parte de la Red Nacional de Acelerógrafos (RENAC) Ecuador
          
Evento: 201604162358
Fecha del evento UTM (aammdd):                  2016    4   16
Hora del registro UTM (hhmmss): 23   59 7.00
Estación:                                      ALOR 
Componente:                                        Z
Frecuencia de muestreo (Hz):            1.000000e+02
Unidades: cm/s^2
_____________________________________________
2.7655 3.1117 3.6828 4.1192 4.0192 3.7221
3.9318 4.6573 5.1704 5.0508 4.3057 2.9332
1.3975 0.5061 0.4918 0.9496 1.3609 1.3592
1.1209 1.0950 1.2012 1.1539 0.9389 0.6141
0.3053 0.1188 0.1179 0.5204 1.2298 1.6180
1.2539 0.5266 0.1206 -0.0588 -0.5219 -1.2152
-1.7087 -2.1736 -3.2150 -4.7043 -5.9991 -6.8656
-7.6509 -8.3567 -8.6565 -8.8850 -9.2481 -9.3526
-8.9331 -8.2032 -8.2969 -9.7835 -11.3237 -11.5156
-10.0985 -8.0988 -6.4676 -5.4092 -5.1326 -5.1389
-4.8810 -4.2295 -3.3149 -2.4930 -1.9255 -1.7318
-1.7916 -1.7399 -1.2286 -0.3996 0.4375 1.3182
2.2141 2.8923 3.2573 3.5973 3.9515 4.1862
4.3951 4.7083 5.2321 5.6327 5.4953 4.7538
3.5786 2.1740 0.5794 -1.0733 -2.5305 -3.4326
-3.2149 -1.4962 1.1398 3.6232 5.4677 6.4475
6.7491 7.1114 7.5647 7.2720 5.5998 3.0182
0.5553 -1.3525 -2.3680 -2.0307 -0.3522 1.6128
2.4284 2.0313 1.2942 0.9854 1.4165 2.0786
2.3543 1.9313 0.6615 -1.2320 -3.4335 -5.6884
-7.2313 -7.0359 -5.0923 -2.6027 -0.6199 1.1470
3.3279 5.1385 5.2491 3.7241 2.0242 0.8151
-0.5208 -2.1681 -3.7002 -4.5141 -4.3240 -3.4646
-2.5161 -1.8709 -1.1731 0.3734 2.5900 4.0677
3.7152 2.3767 1.8333 1.9698 1.8449 1.3996
0.6884 -0.1147 -0.5092 0.2333 1.8913 3.3797
4.2846 4.7825 4.7495 3.6198 1.6013 0.3100
0.8294 2.2438 3.4208 3.9392 3.5386 2.2250
0.9597 1.4799 3.6867 5.4321 5.3706 4.2489
2.9603 0.9651 -1.8753 -4.0883 -4.2534 -3.1603
-2.7203 -3.1406 -3.1603 -2.5963 -2.4607 -3.2361
-4.5175 -5.4027 -5.7043 -5.7374 -5.4696 -5.3117
-5.3287 -4.4800 -2.0484 1.5451 5.1252 7.5194
8.2815 7.8737 6.8787 5.2029 3.0479 1.2614
0.1308 -0.7571 -1.6102 -2.2206 -2.3098 -2.2331
-2.8604 -4.2988 -6.0550 -7.5898 -8.5072 -8.3144
-6.7198 -4.3720 -2.0831 -0.1316 1.3747 1.9967
1.8298 1.8718 2.7757 4.1348 5.1717 5.8169
6.3728 6.8618 6.8413 6.1560 5.3698 4.6649
3.7216 2.5527 1.5550 0.8117 0.4012 0.4967
0.6127 -0.0387 -1.6173 -3.2628 -4.0230 -3.6188
-2.7505 -2.4213 -2.4391 -2.1214 -1.3906 -0.8257
-0.8079 -1.2862 -1.9894 -2.0375 -1.1818 -0.5669
-1.1327 -2.2615 -2.8781 -3.0727 -3.5188 -4.0159
-3.7339 -2.6818 -1.6190 -0.7472 0.3308 1.5158
2.2600 2.6116 2.6357 2.0138 0.7520 -1.0059
-2.8335 -4.1988 -4.8966 -5.1750 -5.6479 -6.4528
-6.9106 -6.2976 -4.5575 -1.9233 0.8475 2.8615
4.0421 4.4080 3.7691 2.2235 0.7529 0.4513
1.0911 1.9558 2.9936 4.3402 5.6519 6.3337
6.1088 5.0710 3.8074 2.9142 2.1887 1.4195
0.8047 0.4094 0.1774 0.2193 0.6726 1.3972
2.0040 2.1307 1.7122 0.7904 -0.2500 -0.8711
-1.1647 -1.3717 -1.8179 -2.7352 -3.7980 -4.5913
-4.6770 -3.9327 -2.7147 -1.6242 -1.0621 -0.9585
-1.1575 -1.4556 -1.6251 -1.6242 -1.6644 -1.6019
-0.9924 0.3461 2.0960 3.4461 4.2840 5.1746
6.1143 6.2793 5.1684 3.6862 2.8661 2.4753
1.8881 1.1546 0.2783 -0.8630 -1.5733 -1.0906
0.4184 2.1888 3.7772 5.0033 5.3602 4.5268
2.9277 1.3152 0.0454 -1.1610 -2.5067 -3.5249
-4.0505 -4.3342 -4.2798 -3.6989 -2.7556 -2.1256
-2.0471 -1.8695 -1.2003 -0.2633 0.6299 1.1662
1.1752 0.8343 0.4354 -0.0821 -0.8335 -1.5072
-1.6429 -1.3198 -1.0396 -0.9209 -0.8799 -0.6550
-0.0687 0.6987 1.5446 2.2050 2.2781 1.8141
1.2261 0.6692 -0.1267 -1.2002 -2.2585 -3.1250
-3.6274 -3.8255 -3.7327 -3.2847 -3.0001 -3.1884
-3.2731 -2.6297 -1.2841 0.3659 1.7811 2.5075
2.7172 2.9010 3.3374 3.8568 3.7881 2.8091
1.2458 -0.2070 -1.0770 -1.6535 -2.2487 -2.8430
-3.3106 -3.3659 -2.5896 -1.1939 0.0277 0.4792
0.1393 -0.5023 -1.2805 -2.2014 -3.3587 -4.5438
-4.8400 -4.1181 -3.0625 -2.3415 -2.2817 -2.3861
-1.9765 -0.9869 0.3588 1.9677 3.6400 5.0008
5.9378 6.4161 6.0699 4.9705 3.9006 3.2536
2.7512 2.0204 1.3966 1.8151 3.1920 4.5100
5.2516 5.5711 5.7210 5.5943 5.1570 4.6189
4.1745 3.9809 3.8720 3.5187 2.6299 1.0736
-0.5924 -1.5954 -1.9737 -2.0987 -1.9220 -1.4428
-0.9895 -0.9511 -1.2875 -1.9193 -3.0151 -3.9788
-4.0279 -3.0936 -1.5356 0.0189 1.1995 1.9339
2.3863 2.7700 2.8486 2.4622 1.7073 0.7141
-0.3050 -0.8957 -0.8074 -0.7119 -1.3392 -2.3315
-2.8080 -2.8036 -2.8723 -2.9517 -2.4020 -0.8663
0.9015 1.7974 1.2914 -0.2327 -1.7104 -2.3966
-2.3413 -2.1834 -2.2922 -2.2244 -1.3749 0.0359
1.2424 1.7484 1.6609 1.3602 0.6606 -0.6628
-2.1512 -2.6616 -1.5123 0.4759 1.7519 1.5440
0.6526 -0.0229 -0.5575 -1.3445 -1.9718 -1.7095
-0.7368 0.3965 1.4298 2.2410 2.5221 2.6300
3.1101 3.4778 3.2948 2.7023 2.1205 1.9706
2.2499 2.6193 2.5845 1.9733 1.0220 -0.1005
-1.3498 -2.4287 -2.7017 -2.0931 -1.2945 -0.8197
-0.6350 -0.1889 1.0471 2.6185 3.4537 3.0156
1.7342 0.4822 -0.2210 -0.4574 -0.5172 -0.5708
-0.7171 -0.9036 -1.0178 -0.9420 -0.9366 -1.4818
-2.3920 -3.2755 -3.8706 -3.8287 -3.1202 -2.3206
-2.0904 -2.2591 -2.2171 -2.0003 -1.8620 -1.8182
-1.8673 -1.9672 -2.0895 -2.0940 -1.6710 -0.7028
0.4698 1.3951 1.8958 1.9930 1.7896 1.3050
0.6277 0.2726 0.6393 1.5567 2.7007 3.5823
3.8572 3.9633 4.2551 4.3944 4.0437 3.4904
3.2245 2.9354 2.2304 1.5442 1.1453 0.4377
-0.9115 -2.2554 -2.8586 -2.6248 -1.7869 -0.3092
1.4702 2.2554 1.6058 0.7509 0.6938 0.9794
0.4556 -1.0052 -2.2349 -2.3080 -1.4862 -0.3368
0.8259 1.6442 1.9672 1.9199 1.8914 2.2010
2.6668 2.8623 2.7641 2.7043 2.5972 2.1145
1.5478 1.5693 1.9467 1.8860 1.0553 -0.4225
-1.9502 -3.1495 -4.1525 -4.8994 -4.9948 -4.2328
-2.9763 -1.4424 0.2941 1.9030 3.1728 3.6154
2.6883 0.6636 -1.4781 -2.9594 -3.5644 -3.3636
-2.2544 0.0318 3.1158 5.7982 6.8038 6.1480
4.7845 3.3317 2.1021 1.0625 0.0461 -1.1746
-2.4007 -2.9192 -2.5899 -1.8100 -0.7418 0.6797
1.9611 2.4340 2.1172 1.5631 0.9501 -0.1698
-1.7100 -3.2886 -4.5843 -5.1982 -4.9707 -3.7874
-2.1401 -0.6463 0.6654 1.9415 3.1649 3.6825
3.2042 2.3074 1.6229 1.3909 1.2535 0.8796
0.4798 0.3835 0.4450 0.0381 -0.8560 -1.3040
-0.8337 0.0105 0.5173 0.5673 0.4245 -0.0002
-0.6856 -1.2799 -1.5815 -1.6743 -1.7225 -1.8590
-2.3319 -3.0422 -3.6160 -3.8810 -4.0426 -4.3085
-4.2853 -3.4438 -1.8911 -0.1831 1.2268 2.0156
2.1816 1.8256 1.5614 2.1049 3.0338 3.7825
4.1011 4.1225 4.2144 4.4036 4.7846 5.4521
6.2186 6.7906 6.7603 5.9465 4.5151 2.6028
0.5781 -0.9871 -1.9321 -2.4666 -2.5665 -2.1132
-1.3110 -0.4927 0.1783 0.8762 1.6864 2.2682
2.2691 1.7194 1.0064 0.4916 0.3042 0.5130
0.9975 1.1350 0.5299 -0.1063 0.0650 1.0439
2.3486 3.5568 4.5018 4.8070 4.0904 2.5690
0.7914 -0.8327 -2.3256 -3.5222 -4.0130 -3.8256
-3.2286 -2.5665 -2.0471 -1.9177 -2.3568 -2.9707
-3.2937 -3.2768 -3.2794 -3.5008 -3.7149 -3.6524
-3.5436 -3.6408 -3.4062 -2.4701 -1.0896 0.4247
2.0292 3.7059 5.0890 5.8002 5.8118 5.1943
4.0191 2.4459 0.7121 -0.6684 -1.5170 -1.6928
-1.0262 -0.0973 0.5889 0.8843 0.8022 0.5532
0.4480 0.9271 2.0604 3.3115 4.1664 4.5144
4.2503 3.0581 1.0226 -0.9441 -1.8695 -2.1282
-2.9465 -4.4475 -5.5209 -5.4701 -4.7705 -4.0468
-3.5756 -3.3677 -3.3570 -3.3597 -2.9224 -2.1835
-1.7686 -2.0015 -2.5369 -2.7707 -2.7653 -2.7341
-2.3968 -1.3099 0.3650 1.7223 2.3648 2.7931
3.6783 4.9339 5.6959 5.7361 5.4737 4.9553
4.1691 3.6186 3.5516 3.2973 2.3514 1.2181
0.7497 1.0120 1.3243 1.2610 0.8496 0.4409
0.1741 -0.1007 -0.4470 -1.1510 -2.1513 -2.9107
-3.2150 -3.4506 -3.8834 -4.0681 -3.9833 -4.3465
-5.2808 -6.0803 -6.2508 -5.8805 -5.2540 -4.6918
-4.3269 -4.0502 -3.6594 -3.0080 -2.1825 -1.3205
-0.3818 0.6489 1.6162 2.5005 3.4161 4.3914
5.4721 6.6464 7.8279 8.9451 9.5751 9.0986
7.3210 4.8055 2.4675 0.4945 -1.1750 -2.1566
-2.2807 -1.5837 0.0073 2.1213 3.5375 3.2082
1.3182 -0.9243 -2.3065 -2.5225 -2.0799 -1.5346
-1.0055 -0.3826 0.2510 0.5981 0.4616 -0.3389
-1.6328 -2.6037 -2.7500 -2.2503 -1.6408 -1.1777
-0.6753 -0.5155 -1.2267 -2.0763 -1.5141 0.6053
2.7166 3.6749 3.6794 3.2654 2.6488 1.9572
1.5074 1.5726 2.2847 3.7187 5.1589 5.7657
5.2741 3.8945 2.1776 0.3608 -1.2383 -2.4644
-3.5638 -4.6257 -5.2824 -4.9978 -4.0269 -2.9462
-2.0807 -1.4712 -0.8653 -0.3763 -0.2344 -0.0675
0.7731 2.2776 3.8472 5.0350 5.6980 5.7551
5.0939 3.7571 2.0938 0.7178 -0.0193 -0.4619
-0.8126 -0.8197 -0.6252 -0.4985 -0.4173 -0.3031
-0.1076 0.2395 0.7767 1.0863 0.6000 -0.3726
-0.9946 -1.2498 -1.3462 -0.9643 -0.1736 0.6803
1.2434 1.1792 0.8811 0.9320 1.3710 1.7681
1.5584 0.7125 -0.2495 -0.8054 -1.0097 -1.2587
-1.6201 -2.1644 -3.0336 -4.0830 -4.8700 -4.9432
-4.3141 -3.2638 -2.0672 -1.1213 -0.6100 -0.2361
0.0986 0.0299 -0.7920 -2.0832 -2.9773 -3.1469
-3.0264 -2.9622 -2.8355 -2.5963 -2.4856 -2.4589
-2.1733 -1.6067 -0.9588 -0.0593 1.1953 2.3821
3.0344 2.8426 1.9351 0.9642 0.3877 0.2673
0.7233 1.7093 2.6677 3.0934 2.8114 2.2162
1.7602 1.1909 0.3378 -0.4359 -0.5653 0.0210
0.5404 0.1656 -1.0293 -2.0742 -2.0742 -1.0132
0.5520 2.2010 3.7225 4.9602 5.6767 5.6741
5.0432 4.0928 3.0631 1.8736 0.3271 -1.2702
-2.3562 -2.5846 -1.9814 -1.0310 -0.2190 0.2459
0.7787 1.9280 3.6360 5.0156 5.2592 4.7416
3.9876 3.3058 2.4982 1.0571 -0.6580 -1.6726
-1.3683 -0.3510 0.4351 0.6975 0.5654 0.2772
-0.3189 -1.3531 -2.6551 -3.9900 -4.9939 -5.5373
-5.7747 -5.4722 -4.1569 -1.9626 0.2549 1.5640
1.5354 0.5931 -0.0431 0.1969 0.5485 0.2380
-0.4527 -0.5294 0.3736 1.4712 1.9111 1.5997
0.9661 0.3736 -0.0547 -0.1966 -0.3697 -0.8373
-1.3031 -1.4378 -1.1371 -0.8685 -0.8926 -0.9747
-0.9631 -0.9675 -1.0693 -0.9372 -0.1573 1.0456
1.5525 1.0322 0.3612 0.1515 0.3175 0.5022
0.8207 1.3553 1.7988 2.0888 2.3029 2.4591
2.6135 2.9303 3.2292 2.9481 2.1539 1.5802
1.4784 1.3749 1.1456 1.1536 1.4231 1.7818
2.0451 1.9532 1.4062 0.5397 -0.3312 -1.0612
-1.7010 -2.1275 -2.1579 -1.8179 -1.4654 -1.4270
-1.5439 -1.4957 -1.1852 -1.0647 -1.6894 -2.7950
-3.6525 -4.0550 -4.6689 -5.9450 -7.2772 -7.7591
-7.2157 -6.2020 -5.1186 -4.1754 -3.4705 -2.8048
-1.9106 -0.8389 -0.1366 -0.1634 -0.4739 -0.5587
-0.5328 -0.6970 -1.0263 -1.1120 -1.0049 -1.1967
-1.5483 -1.4769 -0.8550 -0.0965 0.6130 1.1742
1.3474 1.1662 1.0368 1.1689 1.1359 0.9066
1.0083 1.4910 1.9024 1.9060 1.6080 1.1439
0.6210 0.3203 0.3435 0.4185 0.1570 -0.2392
-0.1303 0.7049 2.1157 3.5774 4.3154 4.3056
4.1779 4.3653 4.9525 5.6414 5.9511 5.5816
4.5840 3.1330 1.6410 0.6853 0.2775 -0.0205
-0.3846 -0.5158 -0.1535 0.5060 1.1065 1.3930
1.1752 0.5194 -0.2722 -0.7522 -0.6889 -0.4524
-0.3926 -0.4542 -0.3650 -0.2159 -0.4247 -1.3233
-3.0054 -4.7321 -5.3434 -4.2708 -2.2728 -0.6469
0.3597 1.0155 1.5242 1.8642 2.0016 2.3318
2.9243 3.1527 2.3443 0.8746 -0.2944 -0.9075
-1.0743 -0.9298 -0.7798 -0.8039 -0.8468 -0.8191
-1.0002 -1.6534 -2.4842 -2.8920 -2.7778 -2.4289
-2.4003 -2.8974 -3.2918 -2.9937 -1.8792 -0.2774
1.6724 3.9800 6.2483 7.9875 8.9887 9.3207
9.1735 9.0030 9.0039 8.5729 7.1702 5.3605
4.0915 3.3464 2.5808 1.5823 0.5507 -0.0302
0.0804 0.5195 0.7479 0.6489 0.4151 0.0555
-0.5353 -1.3241 -2.1763 -2.9562 -3.3649 -3.2221
-2.7072 -1.9550 -0.9886 0.0591 0.8533 0.9880
0.5918 0.4196 0.8363 1.4752 1.8465 1.8607
1.5734 1.2236 1.0469 0.8078 0.4722 0.2483
0.5035 1.3325 2.3507 3.3644 3.9685 3.8016
2.9762 1.6493 0.1814 -0.8448 -1.1125 -0.8538
-0.5048 -0.0738 0.4428 0.5205 -0.0828 -0.9439
-1.4150 -1.2990 -1.1687 -1.3722 -1.6078 -1.5810
-1.3383 -1.0135 -0.5253 0.1430 0.8810 1.7948
2.9968 3.9837 4.1006 3.3394 2.1018 0.9471
0.2287 -0.3192 -1.1901 -2.4135 -3.5049 -3.7717
-3.0132 -2.0878 -1.8879 -2.3386 -2.8035 -2.9873
-3.1042 -3.3389 -3.6592 -3.9475 -4.1527 -4.1893
-3.8627 -3.2229 -2.5616 -1.9557 -1.4480 -1.3953
-1.9022 -2.2912 -1.9245 -0.8233 0.6517 1.9332
2.6908 2.8050 2.0242 0.4992 -1.0508 -1.7344
-1.3980 -0.7385 -0.1032 0.6357 1.3469 1.7172
1.7297 1.3719 0.6901 0.0887 -0.0844 -0.0103
-0.1727 -0.5520 -1.0267 -1.9066 -3.4414 -5.2422
-6.5521 -6.9492 -6.2202 -4.4640 -2.5062 -1.2703
-0.8830 -0.6198 -0.1103 0.2485 0.2583 -0.0844
-0.4342 -0.3663 -0.1540 -0.1986 -0.3485 -0.0585
0.6670 1.2658 1.4880 1.5683 1.6620 1.5228
1.0962 0.5822 0.2271 0.3190 0.8812 1.6317
2.1947 2.6222 3.0924 3.3825 3.0193 1.7325
-0.1164 -2.1421 -3.7715 -4.3265 -3.9419 -3.2745
-2.8738 -2.8345 -2.8774 -2.8140 -2.7792 -2.6007
-1.9547 -1.3363 -1.2693 -1.3059 -0.8633 -0.2003
-0.1209 -0.6304 -0.7348 -0.0075 0.9589 1.3060
0.8750 0.4467 0.4797 0.6305 0.5725 0.2441
-0.3752 -1.0471 -1.4960 -1.7190 -1.7770 -1.8368
-1.9287 -1.8984 -1.7645 -1.8395 -2.4963 -3.4439
-3.9472 -3.8143 -3.1111 -1.7672 -0.0253 1.4926
2.3858 2.7195 2.6062 2.2163 1.9459 2.0440
2.0985 1.7219 1.0812 0.4887 0.1674 -0.1957
-0.8721 -1.5414 -1.9492 -1.9001 -1.4165 -1.0595
-1.0122 -0.8409 -0.1422 0.8296 1.4105 1.5319
1.4266 1.1009 0.4254 -0.5036 -1.2781 -1.7787
-2.2463 -2.8067 -3.3305 -3.8204 -4.4825 -5.1054
-4.9733 -4.0515 -3.2788 -3.2038 -3.5795 -3.7080
-3.0378 -1.6895 -0.1403 1.0893 1.6096 1.6684
2.0825 2.9659 3.5968 3.8146 4.0055 4.0466
3.5486 2.8847 2.7634 3.0793 3.2149 2.8089
2.1129 1.6604 1.6756 1.8202 1.6212 1.1313
0.6012 0.3264 0.1970 -0.1358 -0.4107 -0.3375
-0.1983 -0.4133 -0.8006 -1.0648 -1.4761 -2.2864
-3.2653 -3.7766 -3.3902 -2.3051 -1.1504 -0.4811
-0.0841 0.5932 1.6355 2.6671 2.9303 2.0772
0.9654 0.7030 1.3009 1.9684 2.3226 2.7813
3.8352 5.0863 5.6993 5.4378 4.4250 2.6439
0.2328 -2.0445 -3.4526 -3.8453 -3.4223 -2.6763
-1.8357 -0.9076 -0.2062 -0.0733 -0.2857 -0.6078
-1.5466 -3.1706 -4.4333 -4.4877 -3.7997 -3.4205
-3.5186 -3.4767 -3.1028 -2.2925 -0.7265 1.1635
2.6323 3.1919 2.8956 2.4833 2.3361 2.2415
2.0630 2.1594 3.0839 4.5349 5.1934 4.3198
2.7145 1.0895 -0.5792 -2.1613 -3.4026 -3.9764
-3.6979 -2.7770 -1.6429 -0.6068 0.1704 0.5514
0.4381 -0.2312 -1.3653 -2.4585 -2.8207 -2.1872
-1.1190 -0.4560 -0.2963 -0.5863 -1.0887 -1.1833
-0.4953 0.8914 2.2746 3.1643 3.4364 3.1393
2.6583 2.4325 2.5441 2.6191 2.3763 1.8543
1.1574 0.3088 -0.3087 -0.4256 -0.4337 -0.6264
-0.8459 -0.4783 0.7451 2.1069 2.6164 1.9998
0.8826 -0.1151 -0.7602 -1.2698 -1.9212 -2.2487
-1.8775 -1.1609 -0.6389 -0.3560 0.0822 0.5997
0.8264 0.6104 -0.0633 -0.9717 -1.6615 -1.6062
-1.0556 -0.7433 -0.4050 0.3356 1.2494 2.0784
2.6272 2.9582 3.2839 3.5097 3.0350 1.6286
-0.0293 -1.0199 -1.0939 -0.5915 0.2196 1.1477
1.9544 2.1194 1.1959 -0.5317 -2.0648 -2.5110
-2.0996 -1.4419 -0.8217 -0.7985 -1.5454 -2.4137
-2.6528 -1.9273 -0.9618 -0.5977 -0.6174 -0.5014
-0.3996 -0.6316 -0.8654 -1.0296 -1.7355 -2.8937
-3.3167 -2.4333 -0.9841 0.3732 1.2173 1.0174
0.0055 -1.0118 -1.4008 -1.1501 -0.5897 0.4812
2.2302 4.1148 5.1303 4.8492 3.9337 3.3215
3.1886 2.8013 1.7804 0.5535 -0.1836 -0.2684
-0.1319 0.0011 -0.2380 -0.9350 -1.6935 -2.3886
-2.8303 -2.9838 -3.0641 -2.9981 -2.5153 -1.5560
-0.4852 0.2795 0.6954 0.7918 0.4821 -0.2835
-1.4471 -2.4020 -2.2083 -0.9733 -0.0096 0.0136
-0.5209 -1.1589 -1.7166 -2.2565 -2.5956 -2.5179
-2.0584 -1.4061 -0.6422 0.6231 2.3204 3.5402
3.7473 3.4180 3.3778 3.8276 4.1015 3.4296
1.6476 -0.6217 -2.4215 -3.5388 -4.3428 -4.9121
-5.1280 -4.8050 -3.9385 -2.8775 -1.8335 -1.0446
-0.8090 -1.1178 -1.7433 -2.2314 -2.2805 -1.9548
-1.5265 -1.3873 -1.5220 -1.6157 -1.5024 -0.9750
-0.1050 0.8722 1.9082 3.0772 4.1819 4.2729
3.1843 2.0081 1.5861 1.7288 1.6744 1.2800
0.7562 0.2725 0.0896 0.3439 0.9686 1.4995
1.5620 1.2854 1.1595 1.3416 1.1381 0.2556
-0.6528 -1.0294 -1.1240 -1.1882 -0.9339 -0.2530
0.4957 0.7982 0.7964 0.8892 0.9686 0.7000
0.1744 0.1048 0.7429 1.4344 1.8610 2.4963
3.5065 4.5095 5.1484 5.3983 5.0003 3.6225
1.8324 0.4886 -0.0906 -0.3110 -0.5466 -0.5956
-0.4457 -0.3574 -0.5126 -0.8553 -1.3747 -2.1376
-2.7266 -2.7587 -2.1742 -1.2774 -1.0231 -1.8779
-3.1308 -3.8830 -4.0606 -4.0249 -3.6921 -2.8595
-1.9368 -1.5129 -1.5317 -1.5923 -1.3523 -0.7321
0.0978 0.9580 1.5469 1.8611 2.3358 3.0015
3.2612 2.6463 1.4577 0.2299 -0.8204 -1.5147
-1.8047 -1.5655 -0.5322 1.0330 2.5411 3.3790
2.8810 1.2748 -0.3662 -1.1372 -1.0480 -0.7642
-0.6241 -0.6919 -0.7687 -0.8659 -1.0908 -1.2443
-1.0007 -0.3064 0.0943 -0.1029 -0.4135 -0.4251
-0.0226 0.7609 1.6916 2.1226 1.8674 1.5497
1.4248 1.2195 1.1250 1.4275 2.0075 2.3841
2.3716 2.3885 2.7481 3.3514 3.7744 3.9912
4.2277 4.5409 4.9032 5.2342 5.4493 5.3181
4.8389 4.4695 4.4793 4.5141 4.2393 3.8244
3.6628 3.8386 3.9386 3.5593 2.7509 1.6560
0.1996 -1.3727 -2.4087 -2.5747 -2.3087 -2.1053
-1.9143 -1.5128 -1.0291 -0.6802 -0.2376 0.2041
0.4013 0.3576 0.0355 -0.4178 -0.8346 -1.0086
-0.8578 -0.4143 0.4183 1.5757 2.6064 3.2390
3.8262 4.4259 4.8542 5.1326 5.1067 4.5695
3.4657 2.2512 1.5356 1.4088 1.4874 1.1768
0.2497 -0.9934 -1.9544 -2.2043 -1.7046 -0.9050
-0.4490 -0.5739 -1.2022 -2.0552 -3.1573 -4.5056
-5.7121 -6.6116 -7.0961 -7.1425 -6.9328 -6.5553
-6.1484 -5.9914 -6.0904 -6.3322 -6.5892 -6.7632
-6.8891 -6.7338 -6.1288 -5.0794 -3.7685 -2.7111
-2.0820 -1.6295 -1.2092 -0.6622 0.2462 1.0306
0.9467 -0.1000 -1.4850 -2.3702 -2.5736 -2.1221
-1.1316 -0.0715 0.6585 1.0930 1.6990 2.7305
4.2395 6.0858 7.8294 9.1376 9.8345 10.1424
10.3075 10.3137 10.1986 9.7863 8.8717 7.5947
6.7015 6.6551 6.9094 6.9398 6.7354 6.4624
6.3071 6.3892 6.3892 5.7003 4.1521 2.2416
0.6737 -0.0107 0.2525 0.8932 1.2350 1.0422
0.4587 -0.2570 -0.7344 -0.9682 -1.5509 -2.7270
-3.8166 -4.1485 -4.2610 -4.9186 -5.7717 -6.2304
-6.2571 -6.0599 -5.5638 -4.7241 -4.0013 -3.6167
-3.1964 -2.5601 -1.9176 -1.4545 -1.1466 -0.8557
-0.9066 -1.7543 -3.4114 -5.4843 -7.2414 -8.3095
-8.7396 -8.5870 -8.1623 -7.7214 -7.1575 -6.3526
-5.4219 -4.5866 -3.9254 -3.3998 -2.8322 -1.9765
-0.9913 -0.2694 0.1875 0.6988 1.2868 1.6045
1.4225 1.0682 1.3083 2.2336 3.3009 4.3521
5.5603 6.8569 7.9010 8.4988 8.7496 8.8219
8.7353 8.4060 7.5869 6.2733 4.9080 3.8872
3.3571 3.0662 2.7700 2.6683 2.9101 3.1510
3.1457 3.0011 2.7289 2.4175 2.2872 2.4354
2.4898 2.1525 1.8741 2.1686 3.0618 4.2602
5.4997 6.5357 7.1274 7.2621 7.1033 6.4162
4.8947 2.9137 1.1460 0.1331 -0.1604 -0.2845
-0.6307 -1.0510 -1.1866 -0.6878 0.7980 2.8745
4.6029 5.3025 4.8921 3.8302 2.3908 0.4848
-1.6596 -3.4639 -4.5749 -4.7364 -3.9172 -2.4600
-0.8404 0.6954 2.5131 4.4191 5.5489 5.7148
5.3436 4.6565 3.1904 0.7882 -1.7059 -3.5335
-4.8390 -6.1052 -7.4107 -8.5734 -9.2079 -8.8992
-8.0443 -7.3759 -6.9726 -6.6995 -6.5460 -6.5371
-6.6076 -6.5719 -6.2149 -5.2316 -3.6887 -2.0155
-0.3433 1.2915 2.4123 2.5970 2.2115 1.7877
1.4325 1.1247 0.4813 -1.0268 -3.1140 -4.8737
-5.5796 -5.3913 -5.0620 -4.6997 -3.7940 -2.1779
-0.2781 1.6021 3.4733 5.3098 6.7643 7.4381
7.3185 6.3976 4.7976 2.7970 0.6098 -1.5434
-3.4307 -4.7193 -5.1280 -4.6693 -3.8269 -3.2594
-3.2656 -3.3004 -2.4920 -0.9116 0.5135 1.0337
0.7267 0.1074 -0.5431 -1.3069 -2.1395 -2.5009
-1.9913 -0.9196 0.1235 1.1801 2.6391 4.2150
5.1073 4.9976 4.3015 3.2619 1.9877 1.0409
0.8205 1.1355 1.4728 1.6789 2.1420 2.8497
3.1915 2.6489 1.5451 0.8856 1.2738 2.3295
3.0157 2.9996 2.7391 2.4481 2.2054 2.1662
2.2358 1.9270 1.0347 0.1807 0.0825 0.6965
1.4791 2.1091 2.8114 3.7296 4.5925 5.2912
5.7267 5.9150 6.1024 6.1987 5.8837 4.8656
3.0853 1.1686 0.1477 0.5020 1.5103 1.9663
1.8485 1.6540 0.9964 -0.3663 -1.8333 -2.6632
-2.7372 -2.6783 -3.0852 -3.5564 -3.3306 -2.4151
-1.2898 -0.6491 -0.8419 -1.3139 -1.3487 -0.9614
-0.8276 -1.3603 -2.1456 -2.6051 -2.8238 -3.2530
-4.0418 -4.7771 -4.7548 -3.6215 -1.8261 -0.3234
0.5672 1.2017 1.7362 2.2546 2.7187 3.0881
3.2889 3.0060 2.2520 1.0428 -0.4260 -1.7083
-2.6881 -3.5751 -4.5923 -5.3571 -5.3089 -4.2943
-2.8112 -1.7681 -1.7386 -2.5489 -3.4055 -3.7749
-3.6991 -3.5813 -3.6357 -3.7553 -3.9605 -4.2077
-4.3808 -4.3764 -4.1283 -3.6161 -2.8897 -2.1455
-1.4816 -0.9131 -0.3572 0.2005 0.4611 0.3808
0.1755 -0.0868 -0.3688 -0.4446 0.0497 1.1018
2.4261 3.7209 4.7819 5.6680 6.2774 6.3185
5.7715 4.8684 3.6745 2.0647 -0.0395 -2.5363
-4.9670 -6.8383 -7.7878 -7.6967 -6.8624 -5.6229
-4.4869 -3.7463 -3.0288 -1.9991 -0.8113 0.0542
0.6191 1.2678 1.9558 2.6599 3.5112 4.5794
5.8376 7.0922 8.3478 9.5355 10.2547 10.1521
9.3070 8.2639 7.1699 5.6948 3.7468 1.7756
0.4674 0.0123 0.1310 0.3568 0.5933 1.1581
1.9523 2.9785 4.4500 6.2276 7.9730 9.2874
9.7898 9.0536 7.0128 4.2305 1.4294 -1.1513
-3.7837 -6.2332 -7.6850 -7.7600 -6.9310 -5.9012
-4.8911 -4.2049 -4.0790 -4.0362 -3.7239 -3.3411
-3.2384 -3.3268 -3.2331 -2.9886 -2.7708 -2.6307
-2.1542 -0.7898 1.2510 3.1526 4.2698 4.8382
5.5280 6.4971 7.0736 6.4088 4.5991 2.4593
0.8691 0.2105 0.1570 0.0829 -0.6577 -1.6223
-1.8088 -1.3511 -0.9263 -0.8415 -1.0718 -1.4555
-1.6375 -1.4974 -1.2904 -1.2083 -1.4662 -2.0694
-2.8439 -3.3874 -3.3428 -2.8948 -2.1881 -1.4171
-0.8299 -0.4774 -0.2909 -0.2383 -0.3748 -0.7531
-1.6196 -2.8403 -3.8416 -4.2047 -3.9933 -3.7818
-3.9736 -4.5751 -5.3434 -5.8128 -5.7628 -5.2898
-4.5849 -3.8237 -3.0786 -2.3906 -1.6883 -1.1056
-1.0271 -1.5794 -2.5173 -3.6871 -5.1577 -6.4909
-6.8184 -5.7940 -3.9218 -1.9819 -0.3828 1.0334
2.5433 3.9335 4.7715 4.9446 4.6001 3.8631
2.8163 1.7027 0.8130 0.1928 -0.4425 -1.3804
-2.4690 -3.3355 -3.7424 -3.4765 -2.5476 -1.6927
-1.7730 -2.9009 -4.5812 -6.0563 -6.9165 -7.0825
-6.5051 -5.5093 -4.5134 -3.5773 -2.5681 -1.5990
-0.9556 -0.6807 -0.6094 -0.7120 -1.0511 -1.3313
-1.1947 -1.0635 -1.5606 -2.5199 -3.3738 -3.5398
-2.9955 -2.1656 -1.1786 -0.1756 0.6123 0.7604
0.0599 -1.0724 -2.1691 -3.0508 -3.8396 -4.3839
-4.1475 -2.9000 -1.0028 0.7203 1.8340 2.4729
2.7397 2.6960 2.3961 1.8581 1.1192 0.3500
-0.5263 -1.6578 -3.0026 -4.4205 -5.4833 -6.0508
-6.2944 -6.4435 -6.5791 -6.4854 -6.0901 -5.4610
-4.7926 -4.2831 -4.0760 -4.0528 -3.8119 -3.1516
-2.2324 -1.5061 -1.0286 -0.2684 0.9952 2.2686
2.9120 3.0360 3.1208 3.3376 3.5152 3.3608
2.8656 2.1874 1.3905 0.4911 -0.1068 -0.1256
0.0975 0.2002 0.0199 -0.2683 -0.4102 -0.4147
-0.3344 -0.4120 -0.9001 -1.4400 -1.6283 -1.5096
-1.3659 -1.3998 -1.4453 -1.4462 -1.7041 -2.4135
-3.3531 -4.0679 -3.9965 -3.0658 -1.8245 -0.6083
0.3965 1.1746 1.9135 2.5060 2.7193 2.5355
2.2464 2.1580 2.3543 3.0263 4.1498 5.1358
5.5186 5.3312 4.9788 4.8405 4.7128 4.3175
3.8598 3.4894 3.2342 3.3065 3.9454 4.8824
5.3125 5.0520 4.8360 5.1510 5.6909 5.9497
5.6365 4.7976 3.6403 2.2214 0.6393 -0.9027
-1.9833 -2.4482 -2.5678 -2.8257 -3.7037 -4.8120
-5.6196 -6.1568 -6.7172 -7.1250 -6.4227 -4.2998
-1.5746 0.7544 2.3464 3.3958 3.7706 3.1183
1.5656 -0.3806 -2.4134 -4.4667 -6.1443 -6.9340
-6.7627 -6.0024 -5.0101 -3.7760 -2.4143 -1.2462
-0.5216 0.1004 0.9223 1.5005 1.4505 0.8330
0.2360 -0.0433 -0.1744 -0.1646 0.0915 0.6376
1.4095 2.2894 2.9104 2.7543 1.6897 0.2307
-1.1141 -2.1617 -2.6998 -2.4437 -1.2515 0.5939
2.7016 4.9352 7.0465 8.4216 8.7893 8.5216
7.9853 7.3624 6.7021 5.9239 5.0236 3.9483
2.4884 0.5966 -1.1176 -1.9493 -2.0046 -1.8261
-1.7378 -1.8725 -2.2357 -2.6497 -2.8826 -2.7461
-2.3008 -1.8207 -1.6289 -1.5628 -1.1060 -0.2127
0.8197 1.7728 2.7258 3.7288 4.7604 5.6456
6.0132 5.7491 4.8844 3.5263 1.9414 0.4405
-0.9944 -2.4801 -3.9552 -5.4195 -6.6670 -7.2489
-6.8518 -5.6176 -3.9115 -1.8127 0.5208 2.4965
3.8056 4.6328 5.1040 5.2949 5.0094 4.1474
3.2443 2.8963 3.0694 3.0658 2.4528 1.2722
0.0194 -0.4322 0.0444 0.9876 2.0227 2.9481
3.8270 4.6659 5.1308 4.8024 3.8128 2.8321
2.2753 1.8817 1.3660 0.7012 -0.3036 -1.6279
-3.0414 -4.4040 -5.4052 -5.7532 -5.4560 -4.6610
-3.5277 -2.3524 -1.5672 -1.4083 -1.7046 -2.0401
-2.4220 -2.9012 -2.9298 -2.0124 -0.2233 1.7631
3.6120 5.6198 7.7124 9.2865 10.0611 10.3243
10.2217 9.7880 9.2785 8.8323 8.0417 6.4970
4.5089 2.5386 0.9975 0.1283 -0.2447 -0.1635
0.5870 1.9175 3.1436 3.6353 3.3569 2.6510
2.0755 2.1076 2.7635 3.8084 4.9212 5.5003
5.0809 3.9262 2.7617 1.9318 1.1287 0.1364
-0.6524 -0.6212 0.4764 2.1861 3.7942 4.8846
5.3897 5.7047 6.3811 7.5385 8.7512 9.5400
9.7836 9.4115 8.3710 6.9228 5.5477 4.4188
3.0999 1.5910 0.4523 -0.2508 -0.8960 -1.9454
-3.4445 -4.8794 -5.6977 -5.7102 -4.9785 -3.7979
-2.6976 -1.9704 -1.5019 -0.8995 -0.0911 0.6228
0.9467 0.6442 -0.0188 -0.5524 -0.6961 -0.4462
-0.0339 0.3114 0.2284 -0.3677 -0.7915 -0.5122
-0.0241 -0.0919 -0.8058 -1.6027 -2.0863 -2.6003
-3.6033 -4.8972 -5.8190 -6.1492 -6.0332 -5.4763
-4.5313 -3.4373 -2.5566 -2.0506 -1.8025 -1.7838
-2.0328 -2.2594 -2.0301 -1.4072 -0.7130 0.0678
1.1315 2.4817 3.8077 4.7607 5.1382 4.8321
3.9746 2.8681 1.8579 1.3261 1.3921 1.8088
2.2077 2.4281 2.6619 3.0573 3.5445 4.0183
4.4886 4.9937 5.3899 5.4273 5.0285 4.5680
4.5288 4.9544 5.6460 6.2073 6.1395 5.4086
4.3467 3.0983 1.7928 0.7229 0.0519 -0.3747
-0.8914 -1.6249 -2.3619 -2.8304 -2.8991 -2.5065
-1.7908 -1.0769 -0.5148 -0.0186 0.3330 0.2607
-0.4104 -1.5534 -2.8027 -3.9806 -5.2790 -6.8674
-8.4602 -9.5846 -9.9460 -9.5177 -8.4986 -7.1842
-5.9384 -4.6758 -3.0106 -1.1956 0.1251 0.3866
-0.6200 -2.4226 -4.3857 -6.0839 -7.1538 -7.3367
-6.8754 -6.3614 -5.6609 -4.2920 -2.3592 -0.3898
1.1522 1.9098 1.6314 0.5044 -1.0287 -2.4814
-3.6727 -4.6124 -5.3209 -5.8509 -6.1490 -6.1891
-5.9509 -5.5609 -5.2780 -5.3423 -5.5323 -5.5466
-5.5422 -5.6207 -5.7429 -5.8741 -5.8215 -5.2834
-4.2821 -2.9267 -1.3668 0.0056 1.0461 1.8519
2.4997 2.7639 2.4890 1.9429 1.0122 -0.6413
-2.7660 -4.5498 -5.3851 -5.3735 -4.9371 -4.2875
-3.4951 -2.7285 -1.9111 -0.7627 0.7231 2.2597
3.6090 4.5977 5.2384 5.8880 6.6777 7.3649
7.4693 6.7590 5.5766 4.5093 3.8249 3.2886
2.7943 2.3820 2.2624 2.5935 2.9317 2.8335
2.4579 2.4507 3.0995 4.1480 5.3161 6.2423
6.6037 6.1290 4.6932 2.3865 -0.6404 -3.7395
-6.1506 -7.5132 -7.8095 -7.4249 -6.6860 -5.6206
-4.3329 -3.2192 -2.4982 -1.8941 -1.2391 -0.7126
-0.5074 -0.6269 -0.8197 -0.7144 -0.0621 1.1069
2.4517 3.4841 4.0561 4.3684 4.3274 3.6171
2.3598 1.0748 0.0343 -1.0062 -2.3045 -3.4307
-4.0009 -4.2971 -4.2275 -3.2941 -1.2980 1.3595
3.8866 5.7623 6.9786 8.0111 9.3050 10.6515
11.3333 11.0522 10.3294 9.8538 9.7797 9.6931
9.2621 8.7205 8.4242 8.1994 7.7461 7.1607
6.6940 6.2648 5.4206 3.9500 2.4678 1.5532
0.9053 0.1022 -0.8205 -1.4746 -1.5165 -0.9686
-0.2342 0.1433 -0.1860 -1.1426 -2.2170 -2.8247
-3.0513 -3.5073 -4.0240 -3.8848 -2.8845 -1.4505
0.0773 1.6844 3.0996 4.0482 4.4926 4.5212
4.3025 4.0107 3.7234 3.4031 3.0729 2.7757
2.5179 2.2029 1.7290 1.0874 0.3985 -0.1556
-0.6482 -1.2764 -2.0117 -2.5623 -2.7720 -2.7247
-2.5614 -2.4748 -2.4159 -2.3347 -2.3651 -2.6461
-3.3511 -4.2756 -5.0653 -5.7435 -6.4966 -7.4996
-8.4910 -8.8944 -8.2385 -6.2592 -3.4028 -0.6937
0.9688 1.4810 1.2758 0.6850 0.1809 0.0372
0.2790 0.9287 1.7228 2.2029 2.1119 1.5908
0.9304 0.5191 0.6458 1.1000 1.6854 2.4733
3.2756 3.6057 3.0739 1.6952 0.1622 -0.7650
-1.2335 -1.8010 -2.6612 -3.4581 -3.8025 -3.4688
-2.3453 -1.2013 -0.6418 -0.1707 0.7154 1.7898
2.2315 1.3954 -0.4750 -2.5925 -4.4405 -5.9691
-7.1711 -7.6941 -7.2809 -6.1199 -4.5539 -2.8825
-1.3173 -0.0564 0.5138 0.0605 -1.2914 -3.0333
-4.3406 -4.6877 -4.3789 -3.9087 -3.3786 -2.4015
-0.8176 0.8244 1.8345 1.9193 1.4312 0.8074
0.2185 -0.0046 0.4701 1.3732 1.9568 1.9050
1.3678 0.4344 -0.7158 -1.7991 -2.4630 -2.5701
-2.3194 -1.8553 -1.2075 -0.2616 0.7700 1.4705
1.7498 1.7319 1.8158 2.3735 3.3105 4.2546
5.1023 6.0438 6.8210 6.7639 5.9117 4.8686
3.8138 2.7296 1.7989 1.0359 0.0874 -1.2405
-2.7102 -3.8247 -4.3672 -4.5743 -4.6109 -4.2548
-3.1287 -1.5706 -0.3650 0.1436 0.1266 -0.0286
-0.5185 -1.8642 -3.8604 -5.7120 -6.9015 -7.5208
-7.7912 -7.8260 -7.8081 -7.7671 -7.3396 -6.0457
-3.8193 -0.9968 1.9364 4.5135 6.4329 7.6367
8.2444 8.2105 7.3752 6.0010 4.8713 4.2913
3.6818 2.6369 1.4938 0.6353 -0.0170 -0.8415
-2.0140 -3.1848 -4.2476 -5.4755 -6.7462 -7.5912
-7.9598 -8.1204 -7.9178 -7.0754 -5.5522 -3.6666
-1.9917 -0.8709 -0.2034 0.5765 1.7642 2.9823
3.9264 4.6742 5.1944 5.3051 5.0454 4.5127
3.5864 2.3585 1.2993 0.9566 1.8615 3.9309
6.1992 7.7019 8.5024 8.9494 8.7897 7.8170
6.0083 3.7274 1.5537 -0.0437 -0.8539 -1.4188
-2.1764 -2.7867 -2.8028 -2.2361 -1.4089 -0.5755
0.0126 0.1982 0.0795 -0.1873 -0.3765 -0.5398
-0.9824 -1.6623 -2.2040 -2.2513 -1.7453 -0.5995
1.0709 2.4202 2.8690 2.7227 2.4746 2.2042
1.7366 1.1013 0.4972 0.0903 -0.1364 -0.1649
0.0813 0.4231 0.5944 0.4535 0.4517 1.0594
2.1525 3.6115 5.2231 6.7035 7.8145 8.5480
9.1780 9.4966 9.1673 8.2678 7.1729 6.2984
5.6836 5.2945 5.2053 5.3052 5.3141 5.0714
4.6823 4.1077 3.2350 2.2070 1.1415 0.1492
-0.6396 -1.1483 -1.4124 -1.7220 -2.2673 -3.0249
-3.8503 -4.6293 -5.4752 -6.4479 -7.4723 -8.3968
-9.0848 -9.3587 -9.0384 -8.2674 -7.1528 -5.7715
-4.3607 -3.0471 -2.0459 -1.5783 -1.4579 -1.2365
-0.5958 0.3153 1.2281 1.9831 2.3489 2.5765
2.9941 3.4528 3.6821 3.4144 2.5631 1.2826
-0.1603 -1.6604 -3.2755 -4.8113 -5.9695 -6.6700
-6.9886 -7.2875 -7.8265 -8.2290 -7.8435 -6.6629
-5.4582 -4.7068 -4.2607 -3.7654 -3.2184 -2.8963
-2.8142 -2.9346 -3.2585 -3.7600 -4.4150 -5.0218
-5.2155 -4.7220 -3.6324 -2.2743 -0.7323 1.0542
2.7845 3.6938 3.5251 3.0281 2.7515 2.5239
2.0099 1.3032 0.8177 0.6134 0.4233 -0.0514
-1.0401 -2.3421 -3.2639 -3.4414 -3.2835 -3.3807
-3.7716 -4.0500 -3.9233 -3.3816 -2.7704 -2.3099
-1.9655 -1.7522 -1.4720 -0.9892 -0.3664 0.2315
0.6946 1.3130 2.2786 3.5136 4.7058 5.6311
6.2826 6.6154 6.5949 6.3593 6.5342 7.2838
7.8344 7.6969 7.1678 6.3343 4.9378 3.3191
2.0778 1.2890 0.5180 -0.5037 -1.5897 -2.6231
-3.5850 -4.3703 -4.9744 -5.6106 -6.3843 -6.8983
-6.6351 -5.7257 -4.8343 -4.2712 -3.9678 -3.7501
-3.4708 -3.0862 -2.4044 -1.4344 -0.5144 0.3164
1.5237 3.2879 5.2850 7.2490 9.0552 10.4704
11.3119 11.7742 11.8036 11.1103 9.6655 7.7515
5.6892 3.7751 2.4491 1.6317 1.1668 1.2186
1.7647 2.6169 3.4173 3.9456 4.1714 4.0241
3.4941 2.8221 2.1966 1.3391 0.0505 -1.3032
-2.2714 -2.7675 -2.8800 -2.5025 -1.4326 0.1808
1.8406 3.2407 4.1536 4.3097 3.8082 2.9355
1.9887 1.0821 0.2469 -0.2823 -0.2529 0.5164
1.7540 2.8597 3.4754 3.6324 3.3879 2.7642
2.0351 1.3953 0.7252 -0.3144 -1.7323 -3.2404
-4.7280 -6.0379 -6.8321 -6.6652 -5.5552 -3.9043
-2.0295 -0.2956 1.0027 1.8264 2.4082 3.0792
3.9841 4.8372 5.3717 5.6778 5.8321 5.7875
5.4645 4.7435 3.5861 2.3270 1.3222 0.6681
0.2853 -0.0636 -0.2795 -0.2224 -0.0332 0.1229
0.0301 -0.3938 -1.2397 -2.5970 -4.3870 -6.3350
-8.1545 -9.8143 -11.1332 -11.8586 -12.1326 -12.3030
-12.3521 -11.9497 -11.0029 -9.8000 -8.5266 -6.9766
-5.2178 -3.7722 -2.9405 -2.5389 -2.2230 -1.6555
-0.8925 -0.3330 -0.2250 -0.5044 -0.7605 -0.7622
-0.5035 -0.3214 -0.4463 -0.4410 0.0578 1.0707
2.1192 2.6296 2.5600 2.3333 2.3521 2.4699
2.3039 1.7631 1.1563 0.6379 0.1507 -0.2455
-0.5257 -0.4579 0.1016 0.7664 1.1117 0.9297
0.2488 -0.7845 -2.0748 -3.4776 -4.7956 -5.7870
-6.3465 -6.4955 -6.3545 -6.0859 -5.7290 -5.3569
-4.7831 -3.7524 -2.4585 -1.2806 -0.2740 0.8120
2.1157 3.5381 4.7722 5.5414 5.6994 5.4504
5.5173 6.2366 7.3591 8.4915 9.3357 9.8122
9.8818 9.7944 9.7605 9.5534 8.8663 7.4975
5.6976 3.9540 2.6253 1.9515 1.8971 2.0720
1.9694 1.3822 0.5925 0.0883 -0.0134 0.0214
-0.0785 -0.3873 -0.5158 0.0714 1.1368 1.8989
1.9971 1.7606 1.6241 1.7062 2.0426 2.7351
3.6997 4.5849 4.9552 4.4992 3.5373 2.4602
1.2770 0.0420 -1.0494 -1.7606 -1.9355 -1.6008
-1.0387 -0.5077 -0.3640 -0.8379 -1.7945 -2.8805
-3.6702 -4.0976 -4.4483 -4.8534 -5.0141 -4.8490
-4.7098 -4.9998 -5.7547 -6.6328 -7.3475 -7.8901
-8.3166 -8.4103 -8.1515 -7.7330 -7.2021 -6.5489
-5.7957 -5.0274 -4.2618 -3.4863 -2.9009 -2.6555
-2.4084 -1.9925 -1.7195 -1.9559 -2.7947 -3.8620
-4.7606 -5.3808 -5.7243 -5.8180 -5.8448 -5.9599
-6.1223 -6.0099 -5.5994 -5.4414 -5.8323 -6.5595
-6.9593 -6.5649 -5.7618 -5.0550 -4.3724 -3.5559
-2.7090 -2.0737 -1.7712 -1.5963 -1.4312 -1.3098
-1.2108 -1.0841 -0.7914 -0.2863 0.5686 1.8277
3.2421 4.7448 6.3135 7.7261 8.6872 9.1949
9.5572 9.8785 9.9044 9.3618 8.4954 7.7440
7.2648 6.8749 6.3644 5.8585 5.3302 4.7993
4.3718 3.9274 3.4456 2.8968 2.3685 2.0196
1.9393 2.1044 2.2775 2.3293 2.2498 1.9937
1.5440 0.6972 -0.5807 -1.9638 -3.2747 -4.3152
-5.0808 -5.9107 -6.7468 -7.2938 -7.5490 -7.6258
-7.6633 -7.7070 -7.6249 -7.3768 -7.1778 -7.1564
-7.2483 -7.3375 -7.1448 -6.7869 -6.7325 -6.9377
-7.1430 -7.1501 -6.9377 -6.8039 -6.6397 -6.2828
-5.8268 -5.3868 -5.0977 -4.8925 -4.7158 -4.4267
-3.9278 -3.3987 -2.9632 -2.4760 -1.8085 -0.9732
-0.1523 0.4929 1.0818 1.6315 2.1848 2.7113
3.0825 3.3377 3.6375 4.0061 4.3166 4.6994
5.1947 5.6971 6.2396 6.8893 7.5532 8.0217
8.0752 7.6924 7.2284 6.9446 6.6350 6.0210
5.1599 4.0338 2.5971 1.0310 -0.3914 -1.3846
-2.0386 -2.6196 -3.2094 -3.6886 -3.9545 -4.1428
-4.2249 -4.1062 -3.8055 -3.3022 -2.8034 -2.5642
-2.6276 -2.7739 -2.6668 -2.2769 -1.8396 -1.5228
-1.3836 -1.4095 -1.3658 -1.1007 -0.8714 -0.9874
-1.5781 -2.4562 -3.1540 -3.5547 -3.7207 -3.6537
-3.5708 -3.6172 -3.6734 -3.6154 -3.5056 -3.5591
-3.8099 -4.0249 -4.1775 -4.2079 -4.1534 -4.1177
-3.8670 -3.4369 -2.9157 -2.3089 -1.5951 -0.7705
-0.1378 0.1629 0.2120 0.1611 0.0968 0.0897
0.3360 0.6519 0.8571 1.1088 1.4863 2.1314
3.0041 3.8162 4.4819 5.0664 5.6027 6.0792
6.4567 6.7467 6.9367 6.9037 6.5977 6.1211
5.5831 4.9370 4.2062 3.6556 3.3763 3.1710
2.8962 2.5964 2.3456 2.1377 1.9494 1.9191
2.3340 3.2344 4.3936 5.5162 6.2479 6.3710
5.8838 4.9888 3.8555 2.6089 1.3873 0.2959
-0.5081 -0.8722 -0.7133 -0.4054 -0.2181 -0.0958
-0.1190 -0.1574 -0.1538 0.0184 0.4753 0.9429
1.2883 1.5515 1.6773 1.6639 1.6746 1.8522
2.3118 3.0676 3.9582 4.8014 5.5359 6.1480
6.5478 6.6906 6.6575 6.5139 6.2292 5.6786
4.8809 4.1215 3.5236 3.0070 2.4234 1.7264
1.0367 0.4334 -0.0029 -0.3331 -0.6990 -1.2388
-2.0152 -2.7888 -3.2270 -3.1645 -2.7058 -1.9402
-0.9185 0.0819 0.9617 1.7791 2.3467 2.4145
1.9112 1.1813 0.7395 0.5825 0.3148 -0.1599
-0.5258 -0.5927 -0.5722 -0.7605 -1.0121 -0.9059
-0.3464 0.3907 0.9832 1.4659 2.1263 2.9428
3.5906 4.1073 4.6017 4.9345 5.0327 4.8399
4.4205 3.8717 3.2962 2.6965 2.0201 1.2750
0.1819 -1.2486 -2.6353 -3.7641 -4.5324 -5.0651
-5.3560 -5.3194 -4.9839 -4.4324 -3.9693 -3.6222
-3.1403 -2.4380 -1.8303 -1.4502 -0.9764 -0.3205
0.4871 1.2242 1.7507 2.0273 2.0434 2.1174
2.2798 2.3164 2.1415 1.9131 1.9033 2.1103
2.3959 2.5726 2.4985 2.4119 2.6047 2.9268
3.0062 2.5137 1.6106 0.7076 0.0686 -0.2829
-0.5962 -1.0736 -1.8838 -2.7797 -3.5873 -4.3351
-4.9035 -5.4202 -5.8325 -6.0413 -5.8503 -4.8696
-3.1973 -1.1574 1.0146 3.0804 4.9159 6.3428
7.2967 7.9240 8.2774 8.3836 8.3363 8.4407
8.6700 8.6317 8.1355 7.3440 6.7560 6.4758
6.2848 6.0153 5.5584 4.9927 4.4055 3.7773
3.0045 2.1782 1.4438 0.8995 0.6327 0.4489
0.2017 -0.1445 -0.6130 -1.1136 -1.5491 -1.8837
-2.2505 -2.6610 -2.9081 -3.0179 -3.2347 -3.5096
-3.5899 -3.2740 -2.4566 -1.2046 0.3436 1.9302
3.3339 4.4770 5.2301 5.5326 5.5103 5.2283
4.6679 3.9612 3.2696 2.6816 2.2185 1.7125
1.2021 0.9433 1.0834 1.6625 2.5094 3.4294
4.3485 5.2694 6.0493 6.4678 6.5455 6.4500
6.1769 5.6273 4.8500 3.9505 3.1688 2.7191
2.5826 2.4336 2.0159 1.5153 1.0210 0.4588
-0.1828 -1.0466 -2.2067 -3.4220 -4.3608 -4.7400
-4.4116 -3.5461 -2.2147 -0.3782 1.6198 3.3875
4.8162 6.0467 6.9810 7.3415 7.1648 6.6410
5.9352 5.0518 4.0300 2.9253 1.6662 0.3562
-0.7030 -1.3535 -1.6346 -1.4642 -0.9279 -0.4067
-0.0703 0.1742 0.4731 0.7783 1.0692 1.4074
1.6983 1.7787 1.4967 0.9470 0.2617 -0.5638
-1.4588 -2.3377 -3.1257 -3.9101 -4.6989 -5.2057
-5.2602 -5.0050 -4.8658 -5.1067 -5.4458 -5.5600
-5.5671 -5.6921 -5.9419 -6.1927 -6.1730 -5.8313
-5.2039 -4.3348 -3.4264 -2.4698 -1.4944 -0.6976
-0.3415 -0.4664 -0.6904 -0.7154 -0.5530 -0.4941
-0.8448 -1.6176 -2.4590 -2.9802 -3.2978 -3.7226
-4.2732 -4.7051 -4.7988 -4.5828 -4.2098 -3.7172
-3.0944 -2.4474 -1.8924 -1.6202 -1.7362 -2.1681
-2.7044 -3.2443 -3.9510 -4.7479 -5.3368 -5.6590
-5.9918 -6.4817 -6.9198 -7.0314 -6.8154 -6.5799
-6.5352 -6.7503 -7.0956 -7.1759 -6.6843 -5.6964
-4.5203 -3.3469 -2.2627 -1.3409 -0.6234 -0.0675
0.3975 0.6375 0.5152 0.0914 -0.5145 -1.0419
-1.1597 -0.8634 -0.3227 0.2690 0.7205 1.1006
1.4612 1.7494 1.8333 1.6967 1.5513 1.5326
1.6691 1.8547 1.9288 1.7994 1.5781 1.3737
1.1962 1.0605 0.9142 0.8196 0.7616 0.5501
0.1004 -0.4627 -0.9009 -1.2248 -1.5558 -1.9083
-2.2706 -2.4544 -2.2403 -1.5389 -0.6322 0.0094
0.3770 0.5751 0.6117 0.6037 0.6180 0.7652
0.9624 0.9490 0.6590 0.1548 -0.4493 -1.0579
-1.5620 -1.9341 -2.1840 -2.2081 -1.8092 -0.8981
0.3815 1.7299 2.8301 3.5476 4.0196 4.4417
4.8433 5.0681 4.9673 4.6675 4.3498 4.1553
4.0152 3.6038 2.7953 1.7995 0.7795 -0.2547
-1.1658 -1.8591 -2.2928 -2.4249 -2.1429 -1.4210
-0.4001 0.7885 2.0503 3.3576 4.6193 5.7018
6.4692 6.8243 6.7342 6.3309 5.7687 5.1869
4.6881 4.2651 3.9787 3.7306 3.4004 2.9034
2.4974 2.5687 2.9890 3.5932 4.1759 4.7068
5.1405 5.3574 5.5465 5.7875 6.1872 6.6754
7.0136 7.1653 6.9904 6.4755 5.6875 4.5516
3.1577 1.6818 0.4138 -0.4215 -0.8302 -1.1318
-1.7225 -2.5176 -3.1895 -3.5384 -3.7356 -3.9043
-3.8258 -3.4108 -3.0450 -3.0521 -3.1155 -2.8531
-2.2115 -1.4717 -0.7846 -0.0993 0.4638 0.8359
0.9144 0.5842 0.0819 -0.3964 -0.8489 -1.2326
-1.5351 -1.7064 -1.6770 -1.3762 -1.0068 -0.8596
-0.9970 -1.4940 -2.2507 -3.0744 -3.9158 -4.6520
-5.2106 -5.7086 -6.0869 -6.4010 -6.6125 -6.4385
-5.9923 -5.4453 -4.9652 -4.7109 -4.5806 -4.3647
-3.9497 -3.4027 -2.9440 -2.7977 -2.8468 -2.7888
-2.5791 -2.4336 -2.5327 -2.8369 -3.0681 -3.0609
-2.8807 -2.5585 -2.1570 -1.7384 -1.3601 -1.1334
-1.0362 -1.0085 -0.9416 -0.7283 -0.5088 -0.2304
0.2836 1.0841 2.0157 2.6805 2.9652 2.8884
2.5208 2.0175 1.3259 0.5674 -0.0653 -0.5650
-0.9799 -1.4207 -1.7830 -1.9338 -2.0480 -2.3746
-2.9984 -3.8595 -4.8580 -5.6415 -6.0127 -6.2447
-6.5937 -7.0398 -7.1960 -6.7632 -5.9199 -5.1480
-4.7884 -4.6082 -4.3315 -4.1281 -4.2459 -4.6992
-5.2935 -5.8628 -6.1644 -6.0511 -5.6629 -5.1096
-4.5894 -4.2476 -4.1459 -4.2110 -4.1718 -3.9647
-3.6033 -3.1955 -2.9519 -2.8422 -2.8270 -2.8564
-2.7966 -2.7565 -2.7904 -2.7868 -2.8314 -2.9367
-3.0831 -3.3454 -3.5373 -3.5400 -3.3410 -2.8975
-2.3612 -1.8784 -1.4251 -1.0012 -0.7683 -0.8334
-1.0762 -1.4188 -1.8088 -2.0506 -1.9819 -1.5857
-1.0181 -0.2364 0.7202 1.5527 2.0979 2.1711
1.8856 1.5304 1.3600 1.4929 1.7928 2.2256
2.6566 2.9680 3.1509 3.2429 3.3196 3.2794
3.1269 2.9047 2.5798 2.0998 1.4475 0.7880
0.1339 -0.5648 -1.3242 -2.1246 -2.7778 -3.2445
-3.5684 -3.8941 -4.3626 -4.7945 -5.0872 -5.2193
-5.2541 -5.2407 -4.9962 -4.5794 -4.0280 -3.3301
-2.6600 -2.0916 -1.7837 -1.6695 -1.6748 -1.8310
-1.9532 -2.0407 -2.0121 -1.7658 -1.4267 -0.8806
-0.0623 0.8532 1.9820 3.1296 3.8488 4.1183
4.0791 3.9256 3.6624 3.1680 2.4479 1.7554
1.4520 1.6162 2.1016 2.8334 3.5749 4.0238
4.2513 4.4994 4.9215 5.3007 5.4275 5.3052
4.9706 4.6047 4.3495 4.2692 4.3468 4.5440
4.7984 4.9724 5.0027 4.9652 4.9759 5.0545
5.1232 5.0946 4.8760 4.5360 4.1630 3.7463
3.3555 2.9432 2.5006 1.9705 1.3771 0.9604
0.6829 0.5107 0.3599 0.1136 -0.0890 -0.0346
0.2207 0.3367 0.2813 0.0904 -0.2898 -0.8029
-1.4926 -2.2306 -2.8785 -3.2720 -3.1488 -2.6491
-1.9540 -1.0893 -0.1175 0.8676 1.6824 2.2204
2.4721 2.4971 2.3498 2.1098 2.0295 2.2303
2.4935 2.5453 2.4873 2.4534 2.3936 2.2437
1.8778 1.3736 0.8811 0.4224 -0.0363 -0.4628
-0.7341 -0.8483 -0.7814 -0.5163 -0.0425 0.6687
1.3281 1.7636 2.0670 2.2499 2.3258 2.2839
2.0652 1.6539 1.1818 0.8284 0.5973 0.3180
-0.1049 -0.5199 -0.8777 -1.3685 -2.1636 -3.2219
-4.3686 -5.4760 -6.4513 -7.2250 -7.7381 -7.9746
-7.9005 -7.6560 -7.4552 -7.1125 -6.5628 -5.8820
-5.1538 -4.4685 -3.7412 -3.0639 -2.5098 -2.2099
-2.2938 -2.5357 -2.7641 -2.8373 -2.8176 -2.8310
-2.7552 -2.5945 -2.2349 -1.7031 -1.1150 -0.5296
-0.0835 0.3074 0.5367 0.5269 0.4073 0.3244
0.4912 0.9383 1.4684 1.7370 1.7735 1.7477
1.6111 1.3515 0.7607 -0.0665 -0.7768 -1.2417
-1.4094 -1.1971 -0.4787 0.6456 1.9770 3.3450
4.7246 6.1693 7.4605 8.5090 9.3345 9.6816
9.6173 9.3479 8.9989 8.6866 8.0825 7.3080
6.6092 5.9748 5.6955 5.6866 5.6955 5.5572
5.2761 4.9682 4.6193 4.3088 3.9715 3.5592
3.1184 2.6811 2.3947 2.4233 2.7231 3.0452
3.2335 3.1586 2.9382 2.6348 2.0708 1.5131
1.1276 0.8081 0.5092 0.2549 0.2210 0.3530
0.5217 0.7028 1.0437 1.6380 2.2823 2.9703
3.6985 4.4159 5.1762 5.9758 6.7235 7.2732
7.6382 7.6998 7.3964 6.8690 6.1873 5.5822
5.1735 4.8532 4.4445 3.7770 2.9329 2.1672
1.6764 1.4248 1.3650 1.5194 1.9754 2.7598
3.6860 4.6578 5.5261 6.2756 6.9851 7.5963
8.0826 8.3405 8.4200 8.1612 7.4892 6.6933
5.9178 5.3182 4.7944 4.2161 3.4978 2.6117
1.7470 0.9617 0.3148 -0.2233 -0.7587 -1.3959
-2.1463 -2.8343 -3.3090 -3.6080 -3.8828 -4.2085
-4.6253 -5.0527 -5.3811 -5.6648 -5.9557 -6.2618
-6.5813 -6.9516 -7.4183 -7.9965 -8.6203 -9.1450
-9.4787 -9.5608 -9.3627 -8.9219 -8.3053 -7.5155
-6.6651 -6.0048 -5.5345 -5.2588 -5.0767 -4.8064
-4.5663 -4.4771 -4.6770 -5.0366 -5.3212 -5.5033
-5.5568 -5.5773 -5.5425 -5.2507 -4.5984 -3.6382
-2.6094 -1.7268 -0.9175 -0.1956 0.3497 0.7923
1.1956 1.6338 2.1513 2.8072 3.6130 4.5357
5.5762 6.6443 7.5099 8.1060 8.5682 8.8975
9.0117 8.9520 8.7467 8.2068 7.3689 6.4427
5.6012 5.0363 4.6285 4.2894 4.1065 4.0057
3.8629 3.7148 3.6871 3.8379 4.0896 4.2618
4.2582 4.1235 3.9075 3.6113 3.2410 2.7011
2.0274 1.4215 0.9342 0.5532 0.3141 0.2525
0.4024 0.6639 0.8763 1.0815 1.3278 1.6535
2.0979 2.6003 3.0161 3.2455 3.3293 3.4748
3.7282 3.8960 4.0281 4.3261 4.9151 5.5968
6.2750 7.0076 7.7661 8.5318 9.2251 9.8730
10.3254 10.4137 10.2397 10.0024 9.7436 9.4206
9.0306 8.5416 7.9098 7.1656 6.5829 6.2804
6.0850 5.7941 5.1962 4.2030 3.0001 1.6902
0.2829 -1.0699 -2.3745 -3.5970 -4.5786 -5.2978
-5.7672 -6.0670 -6.2856 -6.3419 -6.1250 -5.6048
-4.8570 -4.0003 -3.1472 -2.4343 -1.8747 -1.4652
-1.0913 -0.7272 -0.5434 -0.5924 -0.9369 -1.5214
-2.2611 -3.0285 -3.6844 -4.3180 -4.9792 -5.5851
-5.8903 -5.8448 -5.6190 -5.2237 -4.5571 -3.5077
-2.1924 -0.8539 0.4026 1.5805 2.7048 3.7186
4.4021 4.7635 4.9562 5.5352 5.5352 5.5709
5.5798 5.7190 6.0804 6.5765 7.0566 7.3493
7.5278 7.5438 7.5046 7.4626 7.3930 7.2958
7.1057 6.9040 6.6640 6.5096 6.4641 6.3757
6.2490 6.0090 5.6413 5.2576 4.8070 4.3581
3.9923 3.5773 3.1963 2.8179 2.4779 2.3575
2.3771 2.3931 2.1834 1.6980 0.9440 -0.0260
-1.0433 -2.0579 -2.9958 -3.8524 -4.5172 -4.8554
-4.9545 -4.9536 -4.8858 -4.6689 -4.3031 -3.7222
-3.0529 -2.5086 -2.0615 -1.7465 -1.5288 -1.4583
-1.5484 -1.7438 -2.0901 -2.4336 -2.6880 -2.7888
-2.6817 -2.3792 -1.9491 -1.4128 -0.6052 0.3987
1.4659 2.3012 2.5581 2.2592 1.5846 0.7360
-0.1510 -0.8908 -1.4333 -1.8358 -2.1936 -2.6184
-3.0824 -3.5732 -4.0479 -4.4736 -5.0331 -5.7693
-6.5465 -7.3140 -7.8520 -8.0029 -7.9645 -7.9529
-7.7771 -7.3595 -6.7866 -6.0611 -5.3758 -4.7440
-4.1881 -3.6928 -3.2939 -3.3180 -3.8570 -4.7083
-5.4793 -5.8773 -5.8086 -5.3241 -4.4933 -3.3457
-2.2240 -1.3727 -0.8124 -0.5509 -0.4875 -0.6401
-1.0578 -1.6619 -2.2767 -2.8701 -3.5064 -4.1025
-4.4549 -4.4799 -4.2818 -3.9597 -3.6947 -3.5608
-3.4778 -3.3145 -2.9398 -2.4516 -1.9921 -1.5066
-0.8829 -0.1092 0.7795 1.5889 2.1877 2.7338
3.2290 3.6011 3.9367 4.3213 4.7978 5.2431
5.4296 5.3171 4.9727 4.4480 3.7787 2.9818
2.1091 1.1793 0.3244 -0.3984 -1.0471 -1.4915
-1.8155 -2.0983 -2.3036 -2.4240 -2.3732 -2.1572
-1.9359 -1.9752 -2.1769 -2.4357 -2.7221 -2.8961
-3.0674 -3.3253 -3.7367 -4.2543 -4.7406 -5.0244
-4.9548 -4.5443 -3.8982 -3.1737 -2.4303 -1.8012
-1.3595 -1.1097 -1.0302 -1.0534 -1.2471 -1.5960
-2.1180 -2.7935 -3.3968 -3.8090 -3.9607 -3.8974
-3.7171 -3.3950 -2.9997 -2.6490 -2.3162 -1.8789
-1.2739 -0.5457 0.2020 1.0435 2.0742 3.0924
3.9347 4.5746 5.0056 5.3402 5.6953 6.1638
6.7795 7.4568 8.0824 8.5455 8.8194 8.9328
8.7650 8.2885 7.7174 7.2159 6.7902 6.3173
5.6855 5.0127 4.4059 3.7741 3.1646 2.5899
2.0340 1.4825 0.8034 0.0458 -0.7511 -1.4667
-1.9736 -2.3439 -2.5750 -2.8186 -3.1640 -3.5905
-4.0322 -4.4213 -4.9639 -5.6135 -6.2301 -6.7129
-7.0163 -7.2911 -7.4919 -7.5936 -7.5669 -7.3741
-7.0502 -6.5755 -5.9669 -5.3521 -4.8443 -4.3366
-3.7655 -3.1444 -2.4385 -1.6961 -1.0349 -0.4165
0.1850 0.6222 0.9131 1.0193 0.8774 0.5383
0.0627 -0.3924 -0.7565 -1.0322 -1.1759 -1.2419
-1.4293 -1.6819 -1.8050 -1.6819 -1.2928 -0.9359
-0.8636 -1.0947 -1.5579 -2.0781 -2.5394 -2.9767
-3.4157 -3.8414 -4.1555 -4.3027 -4.2992 -4.0779
-3.7067 -3.2694 -2.7715 -2.1888 -1.5320 -0.7592
0.1188 0.9309 1.7117 2.4550 3.1252 3.6998
3.9470 3.8658 3.5883 3.2010 2.9877 2.9984
3.1198 3.2920 3.3982 3.4339 3.4160 3.4241
3.4740 3.5178 3.4615 3.1885 2.8065 2.4059
1.9981 1.6126 1.3966 1.5394 1.9285 2.3024
2.4032 2.1007 1.4930 0.7470 -0.0668 -0.9476
-1.8167 -2.5342 -2.9563 -3.1187 -3.1633 -3.1847
-3.2178 -3.1928 -3.0893 -2.8635 -2.5324 -2.2273
-1.9604 -1.7151 -1.5518 -1.4929 -1.5500 -1.6722
-1.7106 -1.6303 -1.5152 -1.3483 -1.1181 -0.8200
-0.4015 0.0018 0.2543 0.3882 0.5327 0.6916
0.8495 0.9941 0.9959 0.8647 0.6889 0.5997
0.4926 0.3560 0.3739 0.4007 0.3605 0.2954
0.2427 0.2025 0.1276 0.0482 -0.0902 -0.2356
-0.3445 -0.6059 -1.0628 -1.6107 -2.0953 -2.3674
-2.4210 -2.2854 -2.0757 -1.7508 -1.1869 -0.5738
-0.1018 0.1731 0.3506 0.5229 0.5701 0.4532
0.2168 -0.0822 -0.3766 -0.6809 -0.9219 -1.0075
-0.9121 -0.6015 -0.0733 0.6174 1.2465 1.7328
2.1005 2.3280 2.5797 2.8224 3.0035 3.1570
3.2248 3.2186 3.1151 2.9339 2.7126 2.5413
2.4458 2.3030 2.1263 1.9880 1.9943 2.1397
2.3173 2.4913 2.5529 2.5029 2.4172 2.2736
1.9184 1.2384 0.3702 -0.5597 -1.3949 -2.1106
-2.7575 -3.1421 -3.2635 -3.2242 -3.0779 -2.9066
-2.6478 -2.3774 -2.1891 -2.0446 -2.0258 -2.0820
-2.1766 -2.3078 -2.3007 -2.1418 -1.8492 -1.5011
-1.2334 -1.1165 -1.2825 -1.7332 -2.3712 -3.0993
-3.7900 -4.4611 -5.1009 -5.5462 -5.6354 -5.3293
-4.8171 -4.2683 -3.6508 -2.9691 -2.3534 -1.9179
-1.8001 -2.0027 -2.4069 -2.9111 -3.3662 -3.6973
-3.8900 -3.9810 -4.0453 -4.0381 -3.7999 -3.2627
-2.5435 -1.7234 -0.8560 0.0167 0.8733 1.6916
2.4430 2.9623 3.2407 3.2514 3.1104 3.1443
3.2916 3.4486 3.6797 3.9528 4.1679 4.3115
4.4061 4.5935 4.9433 5.3511 5.8249 6.3514
6.9422 7.6248 8.2405 8.7054 9.2230 9.6897
9.9297 10.1216 10.3911 10.7775 11.2067 11.6386
12.1222 12.7085 13.2751 13.6428 13.8409 14.0301
14.3665 14.7698 15.0670 15.1276 14.9750 14.6493
14.1630 13.4491 12.4738 11.4717 10.5302 9.5790
8.5528 7.4998 6.5191 5.7338 5.2466 4.9798
4.8504 4.7817 4.7255 4.7130 4.8352 5.1252
5.4982 5.8632 6.2326 6.7145 7.2669 7.8139
8.3502 8.7821 9.0328 9.1854 9.2157 9.0703
8.8285 8.5429 8.2449 7.8638 7.4971 7.1330
6.7725 6.7047 6.7234 6.6118 6.2852 5.6071
4.7254 3.8143 3.0130 2.3741 1.8842 1.4514
0.9873 0.6500 0.5233 0.5010 0.4983 0.4341
0.3350 0.1958 0.0048 -0.2664 -0.6600 -0.9892
-1.2498 -1.4559 -1.6166 -1.8388 -2.0690 -2.2626
-2.4411 -2.7659 -3.2362 -3.7707 -4.4685 -5.1494
-5.6241 -5.9507 -6.1230 -6.1952 -6.2256 -6.1381
-5.8428 -5.3288 -4.7621 -4.2544 -3.8323 -3.4272
-2.9953 -2.6500 -2.3796 -2.1966 -2.0646 -1.9432
-1.8522 -1.6702 -1.3641 -0.9242 -0.3897 0.1707
0.6892 1.0800 1.4388 1.7761 2.0090 1.9893
1.6021 0.9703 0.2885 -0.3058 -0.7957 -1.1616
-1.3793 -1.3882 -1.1178 -0.6467 -0.1247 0.3126
0.6142 0.8114 0.9595 1.1103 1.2362 1.3370
1.4708 1.6484 1.9982 2.5292 3.0985 3.6803
4.1943 4.6181 5.0063 5.3445 5.5819 5.6265
5.3695 4.8207 4.1157 3.3974 2.7522 2.2222
1.7492 1.2995 1.0353 0.8952 0.8560 0.9131
0.9568 1.1478 1.3815 1.4708 1.4208 1.3307
1.3342 1.3673 1.3458 1.1754 0.9514 0.9157
1.1343 1.4788 1.7661 1.9499 2.0445 2.1293
2.2640 2.3310 2.2007 1.8152 1.2262 0.6248
0.1126 -0.3684 -0.8672 -1.3678 -1.8801 -2.3735
-2.8491 -3.3551 -3.8986 -4.5527 -5.2523 -5.9179
-6.4319 -6.6586 -6.6979 -6.5292 -6.0768 -5.3290
-4.3189 -3.2195 -2.0452 -0.9137 0.0554 0.9763
1.8428 2.6548 3.3696 4.0621 4.6421 4.9874
5.2043 5.2248 5.2676 5.4389 5.7102 6.0743
6.4125 6.8149 7.2700 7.7555 8.1231 8.2025
8.0722 7.8224 7.5181 7.1281 6.6498 6.1358
5.6540 5.2372 4.8963 4.7518 4.8990 5.2479
5.6495 5.9752 6.2170 6.5293 6.8997 7.2495
7.4458 7.3431 7.0067 6.4374 5.8467 5.4166
5.1158 4.9258 4.6143 4.1405 3.6542 3.1919
2.6476 1.9346 1.1395 0.2909 -0.6309 -1.5126
-2.2505 -2.7547 -3.0911 -3.3731 -3.4749 -3.3767
-3.1991 -3.1028 -3.1144 -3.1260 -3.0207 -2.7610
-2.3996 -1.9258 -1.4983 -1.2208 -1.0611 -1.0156
-1.0049 -0.9986 -1.0040 -1.1227 -1.3797 -1.6259
-1.7652 -1.8133 -1.8160 -1.8482 -2.0239 -2.2381
-2.3479 -2.4014 -2.5067 -2.7093 -3.0368 -3.5383
-4.1513 -4.7349 -5.2123 -5.6059 -5.8959 -6.0404
-6.0333 -5.7451 -5.1722 -4.4842 -3.8792 -3.4732
-3.1100 -2.6067 -1.9713 -1.3690 -0.8747 -0.4606
-0.1019 0.1828 0.4389 0.8056 1.1099 1.2322
1.3027 1.4187 1.6328 1.8773 2.0611 2.2093
2.3164 2.3681 2.4413 2.5457 2.6528 2.7536
2.8553 2.9669 3.0686 3.1498 3.2444 3.3756
3.4835 3.5335 3.5799 3.5933 3.3488 2.7241
1.9005 1.0313 0.1657 -0.7757 -1.8447 -2.8798
-3.8025 -4.4379 -4.6860 -4.6306 -4.4236 -4.2327
-4.0587 -4.0185 -3.9864 -3.9435 -4.0953 -4.2755
-4.3871 -4.2577 -3.9016 -3.4385 -2.7737 -1.9501
-1.0051 -0.0404 0.7877 1.4052 1.8478 2.1289
2.3127 2.4572 2.4242 2.0744 1.4605 0.7805
0.1157 -0.5027 -1.0229 -1.3424 -1.4245 -1.4058
-1.3335 -1.2184 -1.0747 -0.9043 -0.7731 -0.7535
-0.9855 -1.4513 -1.9742 -2.4900 -2.8309 -2.9915
-3.1414 -3.2360 -3.2137 -3.1039 -2.9282 -2.6685
-2.4008 -2.1938 -2.0858 -2.0474 -2.0153 -2.1108
-2.3365 -2.5712 -2.8041 -2.9648 -2.9237 -2.6141
-2.1804 -1.8797 -1.7405 -1.8761 -2.2803 -2.7676
-3.3824 -4.0285 -4.7557 -5.5196 -6.1407 -6.6698
-6.9938 -7.0964 -7.0312 -6.8242 -6.5922 -6.4146
-6.2906 -6.2603 -6.2861 -6.2415 -6.1996 -6.1576
-6.0167 -5.8034 -5.5285 -5.2403 -5.1645 -5.3171
-5.5187 -5.7240 -5.8980 -6.1407 -6.4209 -6.5699
-6.4539 -6.0274 -5.5857 -5.1234 -4.5122 -3.8795
-3.2415 -2.6606 -2.1368 -1.7058 -1.4363 -1.2141
-0.9883 -0.7733 -0.5654 -0.4940 -0.6412 -0.9749
-1.4104 -1.7299 -1.8387 -1.7816 -1.5809 -1.2507
-0.8295 -0.3343 0.1646 0.5518 0.8294 1.0141
1.1292 1.1194 0.9043 0.4091 -0.2120 -0.6975
-1.0517 -1.1668 -1.1294 -1.1963 -1.3426 -1.5247
-1.7469 -1.9619 -2.1699 -2.3903 -2.5973 -2.8784
-3.2826 -3.7475 -4.1812 -4.5328 -4.7925 -4.9219
-4.9040 -4.6988 -4.3731 -3.9457 -3.4433 -3.1229
-3.0506 -3.2336 -3.7012 -4.2598 -4.6944 -4.9398
-5.0656 -5.1691 -5.1994 -5.1423 -5.0379 -4.8559
-4.7140 -4.5641 -4.3009 -4.0225 -3.6432 -3.1926
-2.8365 -2.4600 -1.9933 -1.5979 -1.3356 -1.1536
-0.9635 -0.6012 -0.1506 0.3108 0.7293 1.0818
1.5949 2.2445 2.9245 3.5116 4.0774 4.6654
5.1776 5.6202 5.8790 6.0468 6.1342 6.0673
5.8710 5.5158 5.1098 4.7234 4.3977 4.2112
3.9783 3.6838 3.4830 3.3643 3.3706 3.5339
3.7900 4.0586 4.3191 4.5904 4.8769 5.0990
5.1651 5.1544 5.1802 5.2320 5.2998 5.3989
5.4801 5.4979 5.4658 5.3980 5.2552 4.9652
4.5484 4.0808 3.6463 3.3803 3.2072 3.0939
3.1100 3.1938 3.4366 3.8167 4.1692 4.3619
4.2352 3.8310 3.3402 2.9377 2.6450 2.3568
2.0115 1.7375 1.6367 1.6982 2.0248 2.5049
3.1296 3.9460 4.8759 5.9547 6.9836 7.8465
8.4176 8.6603 8.6907 8.4354 8.0419 7.5163
6.9193 6.3964 5.8066 5.2658 4.8651 4.6064
4.6028 4.7688 5.0177 5.3042 5.5183 5.6682
5.8306 6.0064 6.2465 6.5793 6.9898 7.5181
8.1034 8.6603 8.9628 8.9681 8.8182 8.4514
7.9615 7.2575 6.2679 5.2354 4.2895 3.5257
2.9903 2.6895 2.5066 2.4227 2.5048 2.5824
2.5708 2.4736 2.2888 2.0283 1.6258 1.1823
0.8923 0.7593 0.7870 0.9012 0.9726 1.0574
1.2278 1.5714 2.1924 2.9777 3.8335 4.6161
5.2077 5.7065 6.0224 6.2660 6.4231 6.3285
6.1375 5.9010 5.6726 5.5655 5.6369 5.7484
5.8609 5.8966 5.7127 5.4852 5.3317 5.3558
5.4147 5.3245 5.1514 5.0452 5.1211 5.2523
5.5226 5.9965 6.6184 7.4903 8.4986 9.5239
10.4136 10.9856 11.2729 11.1230 10.5617 9.7095
8.6556 7.6767 6.7398 5.7600 4.7195 3.5675
2.3780 1.3714 0.6352 0.1310 -0.0912 -0.0948
0.0632 0.3193 0.5736 0.7681 0.8181 0.7771
0.6887 0.5531 0.3469 0.0837 -0.1599 -0.4321
-0.7328 -1.0443 -1.3450 -1.6207 -1.8616 -2.0981
-2.3632 -2.6719 -3.0976 -3.4813 -3.7677 -3.9016
-3.9087 -3.9105 -3.8418 -3.8240 -3.8463 -3.9971
-4.3308 -4.6646 -5.0385 -5.5203 -6.1316 -6.6938
-7.0239 -7.0846 -6.9169 -6.6447 -6.3431 -5.9397
-5.2642 -4.4700 -3.7008 -3.0530 -2.6675 -2.4257
-2.3159 -2.2347 -2.1116 -2.0750 -2.0866 -2.1955
-2.4534 -2.8870 -3.3921 -3.8053 -4.2122 -4.7119
-5.2803 -5.8015 -6.1522 -6.2914 -6.3422 -6.3306
-6.2441 -6.1736 -6.0273 -5.7596 -5.4419 -5.0983
-4.6700 -4.2336 -3.8901 -3.6902 -3.7937 -4.1176
-4.4817 -4.7601 -4.8574 -4.8280 -4.7485 -4.6816
-4.5763 -4.3657 -4.0695 -3.6795 -3.3378 -3.1361
-3.0709 -3.1905 -3.3074 -3.4332 -3.7304 -4.2747
-5.0145 -5.6900 -6.1835 -6.4842 -6.6422 -6.6225
-6.3780 -5.8515 -5.0752 -4.1124 -2.9701 -1.8735
-0.8597 0.0353 0.6956 1.1561 1.4577 1.7682
2.1965 2.7070 3.2210 3.7216 4.1758 4.5711
4.9503 5.2403 5.5312 5.8632 6.0952 6.2844
6.4289 6.5012 6.6056 6.7359 6.8162 6.8983
7.0080 7.0616 7.0321 6.8055 6.4084 5.9738
5.5954 5.3081 5.0609 4.9440 4.9003 4.9886
5.2394 5.5642 5.9318 6.1148 6.0737 5.8685
5.5499 5.2046 4.8744 4.6219 4.5246 4.5398
4.6406 4.8869 5.1073 5.2982 5.5499 5.8113
6.1156 6.4449 6.8581 7.3631 7.9057 8.5785
9.3495 10.0884 10.7469 11.2252 11.5322 11.6919
11.7508 11.8266 11.8213 11.6990 11.4608 11.1708
10.9834 10.9102 10.9441 10.9521 10.8450 10.5854
10.1767 9.7109 9.2201 8.7382 8.2322 7.7280
7.2230 6.7045 6.1441 5.5489 5.0242 4.5290
4.0462 3.5732 3.1592 2.8763 2.6443 2.3757
2.0768 1.8528 1.6957 1.6038 1.5761 1.5610
1.6047 1.6350 1.6538 1.6020 1.3780 1.0952
0.7748 0.4116 0.0172 -0.4210 -0.8546 -1.1982
-1.4106 -1.5543 -1.6988 -1.7943 -1.9058 -2.0459
-2.0281 -1.8550 -1.5061 -0.9653 -0.3755 0.2733
1.0077 1.8295 2.6799 3.4688 4.2156 4.7680
5.0500 5.1232 5.0571 4.8724 4.4976 4.0265
3.5151 3.0127 2.6638 2.3917 2.0579 1.6769
1.2985 0.9041 0.4160 -0.0909 -0.5451 -0.9814
-1.3901 -1.7515 -2.0532 -2.3342 -2.5145 -2.6377
-2.7769 -2.8831 -3.0829 -3.2819 -3.4622 -3.6059
-3.4899 -3.1472 -2.5931 -1.9443 -1.2670 -0.5755
0.0581 0.6328 0.9942 1.1129 0.8773 0.3490
-0.2284 -0.8958 -1.5990 -2.3191 -3.0125 -3.6229
-4.2011 -4.6937 -5.1211 -5.5173 -5.7716 -5.8662
-5.8555 -5.8948 -6.1009 -6.4159 -6.8130 -7.2315
-7.6590 -8.0534 -8.4228 -8.7709 -8.9368 -8.9868
-8.9725 -8.7959 -8.5415 -8.2738 -8.0338 -7.8286
-7.5823 -7.3538 -7.1504 -7.0362 -7.0326 -6.9889
-6.8952 -6.7015 -6.4454 -6.1867 -5.8502 -5.4157
-4.8892 -4.3029 -3.6604 -3.0768 -2.5950 -2.1809
-1.8945 -1.6723 -1.4162 -1.0503 -0.6978 -0.5194
-0.5622 -0.7630 -1.0093 -1.2895 -1.6134 -2.0578
-2.4986 -2.8743 -3.1822 -3.3580 -3.4811 -3.5686
-3.6319 -3.6337 -3.5534 -3.3955 -3.2518 -3.2045
-3.2580 -3.4606 -3.8042 -4.2405 -4.5671 -4.6635
-4.5903 -4.3762 -4.0299 -3.5302 -2.9395 -2.3247
-1.7268 -1.1539 -0.6007 -0.0456 0.4996 0.9842
1.4785 1.9407 2.2781 2.4851 2.6252 2.7885
2.8822 2.9205 3.0160 3.1418 3.2819 3.3408
3.3087 3.2007 2.9866 2.6698 2.3012 2.0103
1.8060 1.7926 1.9666 2.2280 2.4949 2.7286
3.0731 3.5318 4.0333 4.4223 4.7123 4.9399
5.0148 4.9872 4.7685 4.4045 3.9761 3.4479
2.9285 2.5278 2.2815 2.1459 2.1450 2.2450
2.3984 2.6322 2.8517 3.0418 3.1837 3.2238
3.2506 3.3934 3.5710 3.6852 3.8306 3.9466
3.9788 4.0189 4.0153 4.0028 3.9966 3.9832
3.9814 3.8958 3.8556 3.8485 3.8351 3.7208
3.3764 3.0186 2.6420 2.3493 2.0941 1.7389
1.4543 1.1990 0.9635 0.7127 0.4129 0.1086
-0.2091 -0.5187 -0.8329 -1.1273 -1.3281 -1.3504
-1.1675 -0.8793 -0.5652 -0.2180 0.0952 0.4021
0.7671 1.1160 1.4408 1.6978 1.9164 2.0708
2.0994 2.0512 1.8941 1.6844 1.4667 1.2748
1.1160 1.0294 1.0089 0.9696 0.9384 0.7805
0.5101 0.2415 -0.0227 -0.2386 -0.4813 -0.6678
-0.7678 -0.9436 -1.2523 -1.6557 -2.0903 -2.5837
-3.0585 -3.5073 -3.9651 -4.3194 -4.5505 -4.6156
-4.5139 -4.3363 -4.0927 -3.7688 -3.4243 -3.1611
-2.9246 -2.7596 -2.7729 -2.8595 -2.9773 -3.0808
-3.1941 -3.3815 -3.6323 -3.8920 -4.1106 -4.3265
-4.4854 -4.6094 -4.7424 -4.9217 -5.1047 -5.2430
-5.4697 -5.7597 -6.0711 -6.3549 -6.4977 -6.5217
-6.4977 -6.4914 -6.4664 -6.3638 -6.2210 -5.9712
-5.6401 -5.3001 -4.8968 -4.4560 -3.9607 -3.4039
-2.8283 -2.3010 -1.9039 -1.6067 -1.3658 -1.1909
-1.1864 -1.3694 -1.5809 -1.8236 -2.1305 -2.4919
-2.9042 -3.2754 -3.7118 -4.2356 -4.6532 -4.9959
-5.3814 -5.8204 -6.2407 -6.5620 -6.6708 -6.5513
-6.2782 -5.8276 -5.2190 -4.5069 -3.6788 -2.7169
-1.6710 -0.6056 0.4412 1.4495 2.3160 2.9397
3.4064 3.6938 3.8169 3.8695 3.8169 3.7580
3.7562 3.7107 3.6688 3.6634 3.6946 3.7562
3.8401 4.0096 4.2345 4.4799 4.7494 5.0439
5.3080 5.5721 5.8505 6.0781 6.3315 6.5590
6.7116 6.7625 6.6750 6.5439 6.4243 6.3645
6.2949 6.0986 5.8255 5.5078 5.2615 5.1768
5.1438 5.1455 5.1357 5.0590 4.9082 4.6797
4.4084 4.1309 3.8436 3.5125 3.2252 2.9218
2.5809 2.3248 2.0928 1.9536 1.8661 1.8045
1.8090 1.7456 1.7903 1.9330 1.9652 1.9732
1.9901 1.9384 1.8045 1.6028 1.3155 0.9737
0.7266 0.5517 0.3830 0.2964 0.1974 0.0600
-0.1319 -0.3996 -0.6816 -1.0135 -1.3741 -1.7997
-2.2718 -2.7527 -3.2534 -3.6594 -3.9717 -4.1769
-4.2412 -4.2037 -4.0110 -3.6692 -3.1980 -2.7162
-2.2441 -1.6436 -1.0064 -0.3640 0.1982 0.6328
0.9853 1.1423 1.0763 0.8862 0.7024 0.4614
0.1563 -0.1480 -0.4488 -0.6183 -0.6460 -0.5407
-0.3328 -0.1141 0.0893 0.2633 0.4070 0.5007
0.5159 0.4766 0.4177 0.3900 0.3963 0.3998
0.4418 0.5069 0.5712 0.5435 0.3552 0.1285
-0.0722 -0.2480 -0.4238 -0.5755 -0.6665 -0.6657
-0.6219 -0.5229 -0.3453 -0.1820 -0.0615 -0.0259
0.0036 0.0375 -0.0116 -0.1677 -0.4230 -0.7165
-0.9851 -1.1859 -1.3760 -1.5661 -1.7329 -1.8409
-1.9096 -1.9346 -1.9114 -1.9132 -1.8365 -1.6437
-1.3983 -1.1369 -0.8942 -0.6149 -0.2606 0.0687
0.3756 0.6889 1.0315 1.5000 1.9792 2.3477
2.6832 3.1241 3.6059 4.0209 4.3412 4.5117
4.7044 4.9328 5.0480 5.0310 4.8909 4.7133
4.4385 4.1806 3.9718 3.5970 3.1508 2.7573
2.4289 2.0809 1.6713 1.2269 0.7941 0.4612
0.1721 -0.1054 -0.3303 -0.4900 -0.5614 -0.5685
-0.5061 -0.3463 -0.1268 0.1525 0.4889 0.8690
1.3375 1.8417 2.3075 2.6484 2.8224 2.8946
2.9562 3.0776 3.2007 3.2632 3.2694 3.3140
3.3515 3.3479 3.4381 3.5478 3.6710 3.8851
4.1546 4.4750 4.8265 5.1978 5.5485 5.8054
5.8768 5.8626 5.9072 5.9464 5.9714 5.9741
5.9669 6.0000 6.1490 6.2918 6.3444 6.3890
6.3979 6.5193 6.7326 6.9931 7.3786 7.8373
8.3932 8.9840 9.4872 9.8540 10.0708 10.1672
10.1556 9.9852 9.7523 9.5488 9.3427 9.1017
8.7751 8.4003 8.0050 7.5553 7.0145 6.4479
5.9678 5.5341 5.1067 4.7024 4.3714 4.1411
3.9600 3.7440 3.5165 3.3264 3.0980 2.9070
2.7714 2.6518 2.6482 2.6919 2.6643 2.5304
2.3564 2.1297 1.7835 1.3703 0.9795 0.6413
0.2611 -0.0922 -0.3100 -0.4117 -0.4447 -0.5000
-0.5456 -0.6241 -0.7562 -0.8150 -0.8436 -0.9159
-0.9453 -0.9382 -0.9605 -0.9632 -0.9677 -0.9614
-0.8865 -0.8124 -0.6973 -0.5483 -0.4349 -0.3564
-0.3350 -0.2966 -0.2948 -0.3297 -0.3082 -0.2752
-0.2315 -0.2137 -0.3172 -0.4885 -0.5777 -0.7036
-0.9481 -1.3104 -1.7539 -2.2464 -2.8586 -3.4770
-4.1320 -4.8030 -5.4411 -6.0595 -6.5547 -7.0054
-7.4132 -7.6898 -7.8370 -7.8826 -7.9040 -7.9084
-7.9067 -7.9388 -7.9522 -7.9245 -7.8040 -7.5988
-7.3249 -6.9724 -6.6351 -6.3897 -6.2335 -6.1068
-5.9935 -5.7918 -5.4956 -5.1752 -4.8486 -4.5452
-4.2186 -3.9973 -3.8804 -3.7573 -3.6457 -3.4931
-3.2754 -3.0006 -2.7016 -2.4473 -2.2894 -2.1823
-2.0806 -2.0101 -1.9610 -1.8602 -1.6862 -1.5505
-1.5032 -1.5023 -1.5041 -1.5371 -1.5969 -1.5925
-1.5461 -1.4845 -1.4122 -1.3159 -1.1856 -1.0508
-0.9152 -0.7706 -0.5529 -0.3084 -0.0211 0.3314
0.7080 1.1515 1.5584 1.9314 2.3240 2.7104
3.0343 3.2717 3.4261 3.5206 3.6420 3.8267
4.0587 4.2372 4.4531 4.8020 5.1518 5.4267
5.5935 5.6524 5.6667 5.7042 5.7559 5.7327
5.6069 5.4436 5.3231 5.1991 4.9894 4.7021
4.4085 4.1952 4.0149 3.9257 3.9239 3.8748
3.9462 4.1149 4.2452 4.3415 4.3710 4.3326
4.2059 4.0738 3.8873 3.6705 3.4965 3.2555
3.0039 2.8058 2.7228 2.7736 2.8834 2.9593
3.0217 3.0940 3.0949 3.0628 2.9066 2.6005
2.1517 1.6546 1.3191 1.0112 0.6837 0.3527
0.0323 -0.2202 -0.4701 -0.6762 -0.8824 -1.0242
-1.0180 -0.9056 -0.7066 -0.4924 -0.2140 0.1162
0.4686 0.8399 1.1736 1.5752 2.0543 2.5666
3.0680 3.4991 3.9336 4.2611 4.4387 4.5038
4.4315 4.2986 4.0300 3.6498 3.2019 2.6683
2.1302 1.6536 1.2048 0.7640 0.3472 -0.1418
-0.6897 -1.3018 -1.9086 -2.4485 -3.0294 -3.6344
-4.2939 -5.0310 -5.7618 -6.3561 -6.7737 -7.0165
-7.1842 -7.2913 -7.1976 -7.0620 -6.8576 -6.5007
-6.1223 -5.6815 -5.1818 -4.7419 -4.3742 -4.0378
-3.8085 -3.5917 -3.3739 -3.2303 -3.1080 -3.0455
-2.9197 -2.6859 -2.3513 -1.9212 -1.5196 -1.1092
-0.6585 -0.2605 0.0313 0.2508 0.3989 0.5542
0.7567 1.0003 1.3046 1.6473 2.0319 2.4049
2.7913 3.1687 3.5623 3.9183 4.1414 4.3404
4.4564 4.5171 4.5046 4.3520 4.1574 3.9397
3.7675 3.5774 3.3088 3.0286 2.7948 2.6529
2.5458 2.4432 2.3192 2.1130 1.9024 1.7802
1.6285 1.4643 1.3411 1.2653 1.2965 1.4099
1.6419 1.8980 2.1318 2.3548 2.5208 2.6466
2.6921 2.7296 2.6948 2.5958 2.4485 2.1594
1.8783 1.5481 1.1350 0.6629 0.0668 -0.4722
-0.9121 -1.2298 -1.4252 -1.5341 -1.5350 -1.4993
-1.3895 -1.1727 -0.8791 -0.6587 -0.5578 -0.5632
-0.7167 -0.8648 -1.0254 -1.2235 -1.4591 -1.8187
-2.2274 -2.5880 -2.8699 -3.0556 -3.1983 -3.3679
-3.4919 -3.4866 -3.3491 -3.1618 -3.0163 -2.8664
-2.6629 -2.5202 -2.4345 -2.3479 -2.3015 -2.2855
-2.2480 -2.2409 -2.3025 -2.3676 -2.4827 -2.6201
-2.7861 -2.9673 -3.1109 -3.2448 -3.3028 -3.2841
-3.1957 -3.0601 -2.8664 -2.5175 -2.0642 -1.6154
-1.1112 -0.5820 -0.1403 0.2987 0.7047 1.0286
1.3347 1.5658 1.6551 1.6229 1.5176 1.3990
1.2365 1.0001 0.7770 0.5450 0.3424 0.2201
0.1077 0.0622 0.0336 0.0194 -0.0199 -0.0663
-0.0529 -0.1636 -0.3421 -0.5384 -0.7311 -0.9863
-1.2924 -1.5458 -1.8385 -2.0224 -2.1910 -2.3454
-2.2499 -2.0652 -1.8510 -1.5780 -1.3353 -1.0676
-0.8025 -0.5241 -0.1342 0.2344 0.6832 1.1669
1.5898 2.0574 2.5348 3.1157 3.6333 4.0402
4.3945 4.6238 4.8888 5.1057 5.2306 5.2948
5.2761 5.3011 5.3885 5.5492 5.7562 6.0060
6.3121 6.6262 6.9653 7.2544 7.4463 7.6194
7.8068 7.9442 8.0201 8.0932 8.1771 8.2851
8.3654 8.4145 8.5099 8.6134 8.6723 8.6500
8.5090 8.2378 7.8969 7.4998 6.9572 6.3585
5.7704 5.1922 4.6915 4.2552 3.8804 3.5154
3.1496 2.8185 2.3982 1.9770 1.5656 1.1141
0.7348 0.4029 0.1539 -0.0754 -0.3101 -0.5153
-0.7670 -1.0124 -1.2355 -1.4336 -1.6335 -1.8824
-2.1091 -2.3893 -2.6909 -2.9113 -3.0175 -3.0291
-3.0604 -3.0434 -3.0309 -3.0764 -3.1282 -3.2139
-3.2844 -3.3459 -3.4004 -3.4387 -3.4923 -3.5539
-3.5583 -3.5592 -3.6484 -3.7261 -3.7805 -3.8010
-3.7984 -3.8314 -3.8314 -3.8234 -3.8555 -3.9367
-4.0536 -4.1696 -4.2758 -4.3606 -4.4596 -4.6479
-4.8987 -5.2155 -5.5322 -5.6902 -5.8508 -5.9668
-5.9561 -5.9017 -5.7482 -5.5412 -5.2449 -4.9103
-4.6015 -4.2419 -3.8091 -3.4210 -3.1140 -2.8686
-2.7116 -2.6714 -2.7865 -2.8865 -2.9391 -3.0007
-3.0346 -3.0400 -2.9543 -2.7366 -2.4822 -2.2770
-2.0736 -1.9843 -2.0441 -2.1789 -2.4198 -2.7330
-3.0971 -3.4897 -3.9216 -4.4062 -4.8827 -5.2923
-5.5716 -5.6938 -5.6822 -5.6367 -5.5841 -5.5689
-5.6689 -5.8125 -6.0517 -6.3497 -6.6647 -7.0279
-7.3358 -7.6196 -7.8435 -8.0292 -8.1612 -8.2058
-8.2362 -8.1487 -7.9774 -7.8186 -7.6374 -7.4367
-7.2145 -6.9414 -6.6237 -6.2668 -5.8260 -5.3209
-4.8292 -4.3822 -3.9770 -3.6531 -3.4202 -3.1320
-2.7376 -2.3556 -2.0290 -1.7426 -1.4330 -1.0814
-0.7592 -0.4514 -0.2238 -0.0668 0.1376 0.2661
0.3490 0.4499 0.4838 0.5222 0.6025 0.7167
0.8175 0.9398 1.1057 1.2324 1.3601 1.5323
1.7902 2.1194 2.5487 3.1322 3.7881 4.4610
5.0642 5.6032 6.1564 6.7400 7.3325 7.8813
8.4033 8.8352 9.1725 9.4599 9.7231 9.9756
10.0693 10.0122 9.8579 9.5812 9.3073 9.0056
8.5693 8.0892 7.6270 7.1728 6.7337 6.3839
6.0760 5.7334 5.4121 5.1186 4.8366 4.4993
4.1200 3.7354 3.3240 3.0278 2.8707 2.7824
2.8002 2.9492 3.1634 3.4177 3.8585 4.3475
4.8142 5.3487 5.8217 6.2081 6.5713 6.8506
6.9362 6.9460 6.8952 6.8033 6.7435 6.6864
6.6810 6.7167 6.7997 6.8764 6.9630 7.0558
7.0950 7.1727 7.2458 7.3021 7.3592 7.3850
7.4127 7.4618 7.6411 7.8803 8.1212 8.4880
8.8860 9.2679 9.5525 9.7167 9.8541 9.8693
9.8113 9.7346 9.6007 9.4428 9.2759 9.0341
8.7244 8.4371 8.1230 7.8312 7.6554 7.5465
7.5188 7.5251 7.5349 7.5001 7.3180 7.1351
6.9575 6.7630 6.6086 6.4034 6.1687 5.9233
5.6306 5.2897 4.8971 4.4482 3.9387 3.4211
2.9625 2.4672 2.0059 1.6873 1.4026 1.2054
1.0903 1.0359 1.0091 0.9297 0.8029 0.6512
0.4647 0.2381 0.0444 -0.1403 -0.2964 -0.3973
-0.3812 -0.2536 -0.0787 0.0997 0.1961 0.3416
0.5093 0.6619 0.8100 0.8475 0.8761 0.8921
0.8921 0.9055 0.9216 0.9501 0.9912 1.0527
1.0403 1.0376 1.0313 0.9385 0.7993 0.6173
0.4486 0.1631 -0.1832 -0.5044 -0.9363 -1.3539
-1.7162 -1.9804 -2.0964 -2.1937 -2.2124 -2.1178
-1.9501 -1.6957 -1.4619 -1.2915 -1.1853 -1.1630
-1.1407 -1.0809 -0.9453 -0.7802 -0.6517 -0.5268
-0.4045 -0.2537 -0.0449 0.2603 0.5833 0.8742
1.1856 1.4997 1.8772 2.2895 2.5946 2.7678
2.8713 2.9382 2.9426 2.9016 2.8391 2.7240
2.5741 2.3189 1.9370 1.5184 1.0214 0.5217
0.0095 -0.5331 -1.0266 -1.5049 -1.9109 -2.2116
-2.3829 -2.4543 -2.5177 -2.5757 -2.5338 -2.4088
-2.3232 -2.2625 -2.2161 -2.1322 -2.0947 -2.1733
-2.2670 -2.4026 -2.6025 -2.8193 -2.9835 -3.1379
-3.2628 -3.2637 -3.2111 -3.1798 -3.1120 -3.0041
-2.8872 -2.6944 -2.4865 -2.2920 -2.1278 -1.9413
-1.6548 -1.4166 -1.2363 -1.1007 -1.0704 -1.0775
-1.0525 -0.9820 -0.8678 -0.7652 -0.6501 -0.4591
-0.2583 -0.0924 0.0361 0.1209 0.2021 0.3654
0.5091 0.6679 0.9106 1.0695 1.1542 1.1747
1.2140 1.2327 1.2256 1.2167 1.1069 1.0168
0.8785 0.6893 0.5349 0.3404 0.1057 -0.1085
-0.2771 -0.3905 -0.4092 -0.3307 -0.1344 0.0923
0.3662 0.6794 1.0096 1.4192 1.8100 2.2187
2.6640 3.1530 3.6563 4.0989 4.5210 4.9163
5.2117 5.3883 5.5026 5.5160 5.4017 5.1813
4.9145 4.5977 4.3015 3.9936 3.5617 3.1699
2.7746 2.3302 1.9492 1.6342 1.3362 1.0649
0.9105 0.8462 0.8587 0.8828 0.8454 0.7597
0.6098 0.4170 0.1216 -0.2103 -0.5342 -0.9340
-1.3677 -1.8594 -2.4117 -3.0551 -3.6762 -4.2107
-4.7087 -5.0897 -5.3815 -5.5475 -5.6412 -5.6706
-5.6394 -5.7215 -5.8527 -6.0017 -6.1454 -6.2498
-6.4113 -6.5782 -6.7593 -7.0163 -7.3153 -7.6106
-7.8007 -7.9051 -7.9506 -7.9408 -7.9096 -7.8007
-7.6526 -7.4982 -7.3349 -7.1618 -7.0155 -6.9146
-6.8334 -6.7576 -6.6389 -6.4809 -6.3123 -6.2222
-6.1169 -5.9304 -5.7412 -5.5360 -5.2825 -4.9809
-4.7382 -4.4794 -4.1689 -3.8521 -3.4925 -3.1338
-2.8259 -2.5752 -2.2718 -1.9621 -1.6962 -1.4178
-1.1626 -0.9493 -0.7593 -0.6183 -0.5317 -0.4407
-0.3943 -0.3238 -0.2024 -0.0784 0.1170 0.3330
0.5177 0.6863 0.8407 1.0004 1.1343 1.2610
1.3618 1.4127 1.5278 1.6625 1.8142 2.0150
2.2408 2.5005 2.7146 2.9377 3.1876 3.4365
3.7417 4.0469 4.3556 4.7170 5.0606 5.3283
5.4809 5.5621 5.6344 5.6692 5.7004 5.7370
5.7673 5.8003 5.8342 5.8565 5.9110 6.0172
6.0296 5.9690 5.9752 5.9922 5.9458 5.8190
5.6620 5.5647 5.5219 5.5460 5.6120 5.7914
6.0689 6.2973 6.5043 6.6114 6.6569 6.6989
6.7676 6.8871 6.9505 6.9880 6.9960 6.9880
7.0130 7.0469 7.0495 6.9862 6.8764 6.7568
6.6185 6.4891 6.3776 6.2785 6.1607 6.0189
5.8627 5.5754 5.2595 4.9668 4.6402 4.3760
4.1226 3.8228 3.5042 3.1490 2.7769 2.3941
1.9961 1.6401 1.3447 1.1073 0.9306 0.7986
0.6781 0.5460 0.3836 0.1855 -0.0295 -0.2607
-0.5034 -0.7550 -1.0468 -1.3235 -1.5921 -1.9472
-2.2444 -2.5139 -2.7789 -2.9065 -2.9565 -2.9422
-2.8744 -2.7379 -2.5692 -2.4032 -2.2587 -2.1677
-2.0757 -1.9963 -1.9339 -1.9000 -1.8571 -1.7679
-1.6885 -1.6778 -1.7206 -1.7840 -1.9009 -2.0472
-2.1704 -2.2676 -2.3346 -2.3872 -2.3961 -2.3408
-2.2507 -2.1017 -1.9277 -1.6698 -1.3128 -0.9256
-0.4562 0.0569 0.5370 1.0099 1.5016 2.0040
2.5100 2.9972 3.4523 3.9261 4.4232 4.8836
5.3646 5.7938 6.1088 6.3667 6.5193 6.5925
6.5880 6.5059 6.3729 6.1721 5.9464 5.7135
5.4609 5.1870 4.9130 4.6819 4.4410 4.2099
4.0671 3.9894 3.9787 3.9707 3.9002 3.7735
3.5602 3.3202 3.1212 2.8570 2.5429 2.2377
1.8754 1.5203 1.2240 0.9679 0.7270 0.4521
0.2192 -0.0074 -0.3037 -0.6598 -0.9819 -1.2041
-1.4879 -1.8127 -2.1170 -2.3874 -2.6381 -2.8933
-3.0968 -3.2886 -3.3957 -3.4885 -3.5992 -3.6500
-3.7161 -3.7446 -3.7357 -3.7268 -3.7304 -3.7554
-3.7946 -3.8044 -3.7473 -3.7197 -3.7340 -3.7705
-3.7714 -3.7384 -3.7456 -3.6902 -3.5823 -3.5028
-3.4823 -3.5591 -3.6885 -3.8214 -3.9892 -4.2042
-4.4380 -4.7263 -4.9797 -5.0814 -5.1493 -5.1930
-5.2349 -5.2590 -5.2091 -5.2046 -5.2358 -5.2510
-5.2706 -5.2528 -5.1671 -5.0663 -4.9226 -4.7111
-4.4970 -4.2525 -3.9732 -3.7340 -3.5002 -3.3209
-3.2334 -3.1406 -3.0853 -3.0782 -3.0951 -3.1014
-3.0675 -3.0443 -3.0496 -3.0666 -3.0407 -2.9443
-2.8212 -2.6606 -2.4883 -2.3902 -2.3135 -2.2787
-2.2831 -2.2215 -2.1171 -2.0252 -1.8762 -1.6933
-1.5121 -1.2962 -1.1284 -0.9018 -0.6742 -0.5350
-0.3084 -0.0398 0.2476 0.4822 0.6589 0.8856
1.0971 1.3407 1.6485 1.9475 2.2589 2.5605
2.8407 3.0522 3.2137 3.4341 3.5483 3.5688
3.5885 3.5938 3.6474 3.6706 3.6804 3.6581
3.6143 3.5358 3.3895 3.2967 3.1708 3.0093
2.8728 2.7443 2.6461 2.5854 2.5239 2.3936
2.2740 2.1839 2.1393 2.1660 2.2062 2.3115
2.4275 2.5247 2.6345 2.6407 2.5087 2.3141
2.0750 1.7707 1.4057 1.0059 0.6080 0.1877
-0.2362 -0.6297 -0.9804 -1.2615 -1.5346 -1.7514
-1.9192 -2.0709 -2.1218 -2.1887 -2.2788 -2.3074
-2.3297 -2.3333 -2.3752 -2.3636 -2.2681 -2.2672
-2.2199 -2.0995 -1.9746 -1.8086 -1.6194 -1.4267
-1.2830 -1.1259 -0.9564 -0.7458 -0.4799 -0.2711
-0.0364 0.1831 0.3794 0.6373 0.8524 1.0585
1.2504 1.3548 1.4583 1.5100 1.4770 1.4315
1.3494 1.2405 1.1638 1.1004 1.0121 0.9978
1.0192 0.9791 0.9478 0.8845 0.8729 0.8836
0.8613 0.9282 0.9228 0.9255 1.0594 1.2110
1.3922 1.6072 1.8526 2.1248 2.4148 2.6549
2.8092 2.9511 3.0671 3.1465 3.2732 3.3946
3.4740 3.5615 3.6043 3.6293 3.6953 3.7631
3.8720 4.0558 4.2486 4.3735 4.4770 4.6198
4.7010 4.6938 4.6537 4.6073 4.4975 4.3449
4.2343 4.0888 3.9425 3.8184 3.6676 3.5391
3.4383 3.3437 3.1947 3.0251 2.9082 2.8315
2.7708 2.7128 2.6824 2.6191 2.5316 2.4406
2.3389 2.2764 2.1898 2.0783 1.9659 1.8606
1.8008 1.7660 1.7749 1.8597 1.9185 1.9168
1.9105 1.8418 1.7338 1.6803 1.6678 1.6749
1.7062 1.7178 1.6963 1.6669 1.6071 1.5179
1.4474 1.4179 1.4491 1.4295 1.3822 1.3456
1.2162 1.1181 1.0413 0.9512 0.9003 0.8388
0.8164 0.8245 0.7897 0.7798 0.8093 0.8084
0.7218 0.5853 0.3961 0.1427 -0.1063 -0.3909
-0.6685 -0.9460 -1.2378 -1.5349 -1.8642 -2.1997
-2.5201 -2.7584 -2.9074 -2.9930 -3.0395 -3.0377
-2.9877 -2.9324 -2.9190 -2.9083 -2.8601 -2.7664
-2.5924 -2.4059 -2.2185 -1.9285 -1.6144 -1.3556
-1.0781 -0.8630 -0.6453 -0.4062 -0.1759 0.0900
0.3728 0.6816 0.9422 1.2286 1.5561 1.8756
2.2361 2.6394 3.0704 3.5255 3.9726 4.3661
4.7373 5.1157 5.4655 5.8108 6.1704 6.4809
6.7861 7.1100 7.4759 7.8792 8.2531 8.6538
9.0241 9.3677 9.8067 10.2145 10.5599 10.9186
11.2675 11.5825 11.7993 11.9849 12.0795 12.0813
12.1063 12.1081 12.1669 12.2214 12.2312 12.2749
12.2803 12.2660 12.2901 12.2660 12.2062 12.1964
12.1294 12.0304 11.9189 11.7484 11.5708 11.3397
11.1139 10.8141 10.4625 10.1582 9.8272 9.5862
9.3551 9.1543 8.9634 8.6965 8.4672 8.1986
7.9416 7.7301 7.5517 7.3687 7.1483 6.9591
6.7235 6.4853 6.2238 5.9106 5.5688 5.1771
4.8085 4.3909 3.9626 3.5289 3.0667 2.5687
2.0289 1.5987 1.1633 0.7930 0.4842 0.1531
-0.0753 -0.3734 -0.7365 -1.1212 -1.4754 -1.7931
-2.1581 -2.5141 -2.8969 -3.2173 -3.5885 -3.9847
-4.2551 -4.5273 -4.7575 -4.9699 -5.1403 -5.3045
-5.5062 -5.6615 -5.7971 -5.8783 -5.9667 -6.0363
-6.0532 -6.0452 -6.0086 -6.0211 -5.9961 -5.9506
-5.9212 -5.8623 -5.7766 -5.6588 -5.6026 -5.5018
-5.3331 -5.1850 -4.9958 -4.8459 -4.6996 -4.5327
-4.4247 -4.3034 -4.1749 -4.0883 -3.9723 -3.8295
-3.7385 -3.6109 -3.4655 -3.3557 -3.2219 -3.1291
-3.0130 -2.9274 -2.9238 -2.9336 -3.0015 -3.0827
-3.1835 -3.2397 -3.2656 -3.2959 -3.3013 -3.3513
-3.3780 -3.3834 -3.3325 -3.2210 -3.1362 -3.0131
-2.8480 -2.7356 -2.6972 -2.6258 -2.5277 -2.5134
-2.5303 -2.5464 -2.5732 -2.5714 -2.5598 -2.5464
-2.5205 -2.5357 -2.5785 -2.6589 -2.7945 -2.9078
-3.1068 -3.3237 -3.5155 -3.8055 -4.0474 -4.3160
-4.5864 -4.7452 -4.8969 -5.0263 -5.1360 -5.2262
-5.2770 -5.3279 -5.3752 -5.4439 -5.5492 -5.6483
-5.7821 -5.9088 -6.0918 -6.3104 -6.5058 -6.7441
-6.9020 -7.0279 -7.1189 -7.1662 -7.1822 -7.0796
-6.9074 -6.7182 -6.5157 -6.2774 -6.0757 -5.8420
-5.5145 -5.2271 -4.9567 -4.6658 -4.4044 -4.1260
-3.8618 -3.6405 -3.4166 -3.2158 -3.0516 -2.8856
-2.7321 -2.6054 -2.4386 -2.2878 -2.1655 -2.0379
-1.9166 -1.7898 -1.6810 -1.6007 -1.5337 -1.4695
-1.4409 -1.4151 -1.3794 -1.3294 -1.3044 -1.3062
-1.2785 -1.3178 -1.3749 -1.4436 -1.5748 -1.6899
-1.8345 -1.9817 -2.1254 -2.3199 -2.4707 -2.6126
-2.7010 -2.6590 -2.6305 -2.6189 -2.5796 -2.5368
-2.4788 -2.4128 -2.3021 -2.2254 -2.1834 -2.0844
-2.0157 -1.9077 -1.7542 -1.6721 -1.5642 -1.4580
-1.3696 -1.2197 -1.0877 -0.9270 -0.7370 -0.5719
-0.3729 -0.1302 0.2045 0.5730 0.8791 1.1566
1.4207 1.6724 1.8937 2.0784 2.2470 2.3755
2.4906 2.6013 2.7057 2.8422 2.9761 3.1117
3.2634 3.4258 3.6025 3.7827 3.9505 4.0870
4.1977 4.2762 4.3672 4.4386 4.5002 4.5225
4.4725 4.4663 4.4716 4.4314 4.3556 4.2878
4.2244 4.1851 4.1164 3.9870 3.9389 3.8666
3.7720 3.7434 3.6694 3.6203 3.5926 3.6015
3.6622 3.6836 3.7595 3.8514 3.9602 4.1066
4.2154 4.3297 4.3930 4.4287 4.4564 4.3787
4.2476 4.1039 3.9254 3.7095 3.4605 3.1437
2.7921 2.4486 2.0497 1.6945 1.3760 1.0895
0.8557 0.5898 0.3810 0.1320 -0.1767 -0.4453
-0.7068 -0.9629 -1.2315 -1.5028 -1.7518 -1.9838
-2.2292 -2.3889 -2.5067 -2.6209 -2.6807 -2.7503
-2.7664 -2.7860 -2.8842 -3.0029 -3.1108 -3.2804
-3.4526 -3.5847 -3.7855 -3.9505 -4.0487 -4.1486
-4.2343 -4.3030 -4.3387 -4.3512 -4.3762 -4.4119
-4.4592 -4.4690 -4.4878 -4.5565 -4.6029 -4.6484
-4.6850 -4.7135 -4.7171 -4.7251 -4.8171 -4.8974
-4.9563 -5.0634 -5.1749 -5.2784 -5.3694 -5.4881
-5.6166 -5.7067 -5.8201 -5.9147 -5.9834 -6.0735
-6.1744 -6.2502 -6.3707 -6.5483 -6.6928 -6.9088
-7.1069 -7.2015 -7.3139 -7.3728 -7.3728 -7.3451
-7.2595 -7.1078 -6.8677 -6.5938 -6.2717 -5.9317
-5.6310 -5.2669 -4.8903 -4.5244 -4.0952 -3.7838
-3.4474 -3.0378 -2.7371 -2.4069 -2.0955 -1.8421
-1.6261 -1.4048 -1.2130 -1.0613 -0.8426 -0.6900
-0.5874 -0.5223 -0.4795 -0.3563 -0.2127 -0.0449
0.1363 0.3201 0.5806 0.8367 1.0777 1.3766
1.6336 1.8567 2.0994 2.3037 2.5018 2.7374
2.9855 3.1765 3.3139 3.4210 3.4665 3.4700
3.4040 3.3567 3.3442 3.2835 3.2380 3.2112
3.1729 3.1006 3.0693 3.0756 3.0122 2.9400
2.8989 2.8364 2.7829 2.7195 2.5991 2.4786
2.3358 2.1716 2.0369 1.9351 1.8664 1.8147
1.7950 1.8022 1.8316 1.8557 1.8860 1.9182
1.9119 1.9128 1.9173 1.9119 1.9378 1.9878
2.0065 2.0190 2.0127 1.9637 1.9289 1.9369
1.9895 2.0136 2.0020 2.0029 2.0315 2.0600
2.0957 2.1903 2.2554 2.3393 2.4580 2.5570
2.7096 2.8810 3.0898 3.3084 3.5083 3.7099
3.8866 4.0321 4.1079 4.1802 4.2980 4.3596
4.3301 4.2980 4.2739 4.2203 4.1427 4.0651
4.0080 3.9410 3.9214 3.9892 4.0963 4.2105
4.2980 4.4122 4.5514 4.6808 4.8316 4.9824
5.1269 5.2412 5.3134 5.3848 5.4348 5.5035
5.5802 5.6025 5.6195 5.6168 5.6016 5.5472
5.4508 5.3937 5.3500 5.3607 5.4098 5.4606
5.5597 5.6793 5.8301 5.9791 6.1049 6.2700
6.4511 6.6573 6.8500 7.0338 7.2890 7.5737
7.8485 8.1421 8.4616 8.7391 8.9818 9.2236
9.4387 9.6073 9.7626 9.9197 10.0624 10.2052
10.3310 10.4336 10.5220 10.5247 10.4515 10.3988
10.2614 10.0562 9.8607 9.6680 9.4949 9.2513
9.0228 8.7953 8.5534 8.3616 8.1474 7.9431
7.7699 7.5611 7.2818 7.0427 6.8348 6.6242
6.3600 6.0870 5.9147 5.7443 5.5631 5.3847
5.2321 5.0313 4.7886 4.6074 4.4129 4.2103
3.9970 3.7463 3.5384 3.3403 3.1047 2.8638
2.5960 2.3408 2.1151 1.8964 1.6671 1.4440
1.2994 1.1415 0.9612 0.8470 0.6891 0.5204
0.3866 0.1956 -0.0034 -0.1792 -0.3487 -0.5326
-0.7450 -0.9484 -1.1189 -1.2697 -1.4383 -1.6088
-1.7310 -1.8872 -2.0844 -2.2477 -2.5047 -2.7456
-2.8714 -3.0089 -3.1133 -3.1695 -3.2070 -3.2507
-3.2927 -3.3542 -3.4336 -3.5122 -3.6005 -3.6451
-3.6202 -3.5693 -3.5648 -3.5595 -3.5211 -3.5274
-3.5791 -3.6220 -3.6496 -3.6603 -3.6407 -3.6434
-3.6086 -3.5220 -3.4310 -3.2552 -3.0607 -2.8555
-2.6404 -2.3870 -2.0452 -1.8007 -1.4768 -1.1074
-0.8459 -0.5238 -0.2221 0.0357 0.2999 0.5908
0.8915 1.2342 1.6161 1.9516 2.2514 2.4977
2.6521 2.7422 2.7511 2.6869 2.6405 2.4459
2.2336 2.1738 2.0248 1.8900 1.7713 1.5554
1.3501 1.1270 0.9352 0.7647 0.6826 0.7335
0.6996 0.6692 0.6193 0.5639 0.6300 0.6407
0.6442 0.6871 0.7424 0.8263 0.8647 0.8432
0.8361 0.7968 0.6987 0.6416 0.5907 0.6139
0.7031 0.7843 0.9271 1.0984 1.2314 1.3706
1.5107 1.6106 1.7097 1.7570 1.8685 2.0077
2.1023 2.2513 2.3637 2.4191 2.4316 2.4744
2.4467 2.3512 2.3450 2.3396 2.3209 2.2593
2.2147 2.1621 2.0898 2.1264 2.1692 2.1513
2.1183 2.1263 2.1165 2.0790 2.0639 2.0014
1.9720 1.9550 1.9345 1.9514 1.8845 1.9006
2.0050 1.9951 2.0380 2.1361 2.1799 2.2370
2.2691 2.3012 2.3985 2.3940 2.3119 2.2512
2.1093 1.9710 1.8077 1.5909 1.4535 1.3633
1.2785 1.1706 1.0956 1.0376 0.9270 0.8350
0.8136 0.8306 0.8243 0.8493 0.8823 0.8707
0.8707 0.8823 0.9153 0.9412 0.9840 1.0438
1.0875 1.1723 1.2366 1.2731 1.3356 1.4373
1.5792 1.6908 1.7934 1.8683 1.9504 2.0878
2.1860 2.2949 2.3787 2.3912 2.4055 2.3993
2.3698 2.3448 2.3056 2.3181 2.3475 2.3038
2.2913 2.3421 2.3832 2.3395 2.2975 2.3091
2.2288 2.1699 2.1744 2.0940 2.0146 1.9611
1.8942 1.7969 1.6577 1.5756 1.5550 1.5336
1.5060 1.4605 1.3953 1.3141 1.1990 1.0607
0.9625 0.8804 0.7439 0.5833 0.3762 0.1728
0.0050 -0.1976 -0.4215 -0.6312 -0.8053 -1.0016
-1.2220 -1.4388 -1.6343 -1.8011 -1.9742 -2.1572
-2.3080 -2.4097 -2.5364 -2.6266 -2.6685 -2.6971
-2.7015 -2.7836 -2.8684 -2.9237 -2.9541 -2.9362
-2.9389 -2.9452 -2.9371 -2.8952 -2.8800 -2.9452
-2.9782 -2.9452 -2.9684 -3.0255 -3.0184 -3.0398
-3.0978 -3.1504 -3.2441 -3.3432 -3.4315 -3.5350
-3.6136 -3.6796 -3.7688 -3.8376 -3.8964 -4.0026
-4.0981 -4.1427 -4.1811 -4.1999 -4.1660 -4.0928
-3.9902 -3.9027 -3.8367 -3.7582 -3.6859 -3.5797
-3.4655 -3.4075 -3.3486 -3.2933 -3.2683 -3.2745
-3.2638 -3.2344 -3.2362 -3.2308 -3.2611 -3.3093
-3.3450 -3.3727 -3.4129 -3.4557 -3.4860 -3.5619
-3.5940 -3.6181 -3.6261 -3.6163 -3.6065 -3.5449
-3.5048 -3.4486 -3.3825 -3.3254 -3.2603 -3.1720
-3.0854 -3.0372 -2.9703 -2.8641 -2.7865 -2.7222
-2.6107 -2.5116 -2.4179 -2.3260 -2.2234 -2.0985
-1.9753 -1.8388 -1.7201 -1.6550 -1.6166 -1.5693
-1.5568 -1.5461 -1.5274 -1.5328 -1.5212 -1.5256
-1.5105 -1.5006 -1.4757 -1.4070 -1.3552 -1.2642
-1.1741 -1.0545 -0.9376 -0.8305 -0.6726 -0.5512
-0.4566 -0.3710 -0.2915 -0.2407 -0.1987 -0.1595
-0.1256 -0.1131 -0.1755 -0.1934 -0.1720 -0.1907
-0.2264 -0.2380 -0.2291 -0.2487 -0.2559 -0.2541
-0.1916 -0.1354 -0.1283 -0.1220 -0.1711 -0.2086
-0.2541 -0.2925 -0.3594 -0.4692 -0.5566 -0.6691
-0.7324 -0.7788 -0.8324 -0.8458 -0.8351 -0.8404
-0.8743 -0.8725 -0.9082 -1.0162 -1.0858 -1.0733
-1.0234 -0.9654 -0.8485 -0.7110 -0.6539 -0.5781
-0.4692 -0.4068 -0.3479 -0.2934 -0.2372 -0.2042
-0.1284 -0.0150 0.0876 0.2152 0.3722 0.5793
0.7720 0.9576 1.1343 1.2994 1.4431 1.5510
1.6278 1.6456 1.6394 1.6072 1.6108 1.6046
1.5162 1.4537 1.4109 1.3645 1.3449 1.3118
1.2521 1.1851 1.1387 1.1066 1.0950 1.1155
1.1209 1.1280 1.1771 1.1842 1.1914 1.2645
1.2877 1.3127 1.3359 1.3823 1.4689 1.4706
1.4581 1.4046 1.3189 1.2056 1.0494 0.9361
0.8014 0.6461 0.5051 0.3650 0.2374 0.1169
0.0116 -0.0651 -0.1231 -0.1990 -0.3159 -0.4158
-0.5211 -0.6023 -0.6585 -0.7790 -0.8290 -0.8772
-0.9530 -1.0012 -1.0958 -1.1297 -1.1494 -1.1806
-1.2163 -1.2904 -1.3992 -1.5491 -1.6428 -1.7446
-1.9034 -2.0069 -2.0756 -2.1836 -2.3050 -2.4174
-2.4986 -2.5807 -2.6557 -2.7003 -2.7431 -2.7155
-2.7039 -2.6780 -2.6307 -2.6155 -2.5210 -2.4835
-2.4139 -2.2684 -2.1917 -2.0569 -1.9240 -1.8205
-1.6545 -1.5037 -1.3475 -1.1976 -1.0861 -1.0138
-0.9960 -0.9469 -0.9049 -0.8336 -0.7506 -0.7122
-0.6105 -0.5088 -0.3936 -0.2991 -0.2767 -0.1964
-0.1063 -0.0555 -0.0001 0.0659 0.1177 0.1364
0.1194 0.0427 -0.0653 -0.1411 -0.2206 -0.3723
-0.4838 -0.5391 -0.6498 -0.7078 -0.7640 -0.8818
-0.9657 -1.0638 -1.1013 -1.1245 -1.1584 -1.1076
-1.0871 -0.9969 -0.8524 -0.7917 -0.7132 -0.6703
-0.6873 -0.6873 -0.6748 -0.6596 -0.6070 -0.5561
-0.5115 -0.4303 -0.3384 -0.2349 -0.1599 -0.1046
-0.0314 0.0935 0.2702 0.4085 0.5325 0.6788
0.8073 0.9662 1.1027 1.2196 1.3900 1.4766
1.5614 1.6676 1.6827 1.7229 1.7755 1.7996
1.8184 1.8460 1.8844 1.9513 2.0762 2.1637
2.3038 2.4796 2.6125 2.8071 2.9802 3.1720
3.3585 3.5022 3.6815 3.8466 3.9983 4.1946
4.4418 4.6221 4.7791 4.9496 5.0905 5.1842
5.2610 5.3725 5.4466 5.5224 5.5804 5.6313
5.7080 5.8392 5.9847 6.0810 6.2193 6.3318
6.4362 6.5085 6.5085 6.5263 6.5308 6.5334
6.5281 6.5611 6.5977 6.5986 6.6485 6.6619
6.6405 6.6021 6.4977 6.3773 6.2291 6.0721
5.8972 5.6991 5.5304 5.3359 5.1137 4.9334
4.7692 4.6229 4.4944 4.3275 4.2329 4.1312
3.9500 3.8162 3.6190 3.4066 3.2352 3.0586
2.9095 2.7882 2.7061 2.5999 2.4848 2.4196
2.3768 2.3304 2.2786 2.2233 2.1278 2.0189
1.9119 1.7503 1.5692 1.3827 1.1828 0.9856
0.7911 0.5992 0.4225 0.2235 0.0245 -0.1218
-0.3146 -0.5154 -0.6894 -0.8741 -1.0392 -1.1980
-1.3158 -1.4550 -1.5434 -1.5880 -1.6826 -1.7227
-1.8057 -1.8762 -1.9458 -2.0797 -2.1413 -2.2100
-2.3099 -2.4108 -2.5098 -2.5741 -2.5874 -2.5973
-2.6008 -2.5785 -2.5303 -2.4384 -2.3483 -2.2412
-2.1484 -2.0663 -1.9423 -1.8334 -1.7549 -1.6505
-1.5229 -1.3944 -1.2730 -1.1365 -0.9607 -0.7769
-0.5583 -0.3397 -0.1353 0.0753 0.2466 0.4099
0.5420 0.6410 0.7570 0.7891 0.8097 0.8998
0.9944 1.0185 1.0238 1.1050 1.0952 1.1229
1.1934 1.1942 1.2308 1.2067 1.2522 1.3227
1.3674 1.4673 1.5342 1.6359 1.7502 1.8912
2.0214 2.1285 2.2177 2.3418 2.5265 2.6523
2.8647 3.0530 3.1529 3.3126 3.4974 3.6660
3.7847 3.9069 4.0310 4.1639 4.2862 4.3478
4.3442 4.2630 4.1800 4.0881 3.9747 3.9069
3.8007 3.6615 3.5687 3.4839 3.4054 3.3242
3.2385 3.1618 3.0779 2.9646 2.8361 2.7245
2.6237 2.5264 2.4622 2.4399 2.4399 2.4238
2.3792 2.3979 2.4282 2.4434 2.5648 2.6388
2.7209 2.8780 2.9779 3.1225 3.2349 3.3009
3.4116 3.5196 3.6445 3.7203 3.8015 3.9631
4.0933 4.2316 4.4003 4.5252 4.6626 4.8215
4.9357 5.0249 5.1383 5.2462 5.3381 5.3926
5.4140 5.4747 5.5104 5.5068 5.5380 5.5808
5.5987 5.6040 5.6201 5.6156 5.5764 5.5068
5.4041 5.3140 5.1775 4.9508 4.7697 4.5948
4.3413 4.1450 3.9880 3.8273 3.6694 3.4642
3.2991 3.1375 2.9350 2.7226 2.4549 2.1676
1.8954 1.5786 1.2752 1.0298 0.7630 0.5113
0.2659 0.0830 -0.0571 -0.2311 -0.3828 -0.5425
-0.6800 -0.7969 -0.8950 -1.0235 -1.1654 -1.2555
-1.3475 -1.4162 -1.4769 -1.5286 -1.5795 -1.6214
-1.6152 -1.5715 -1.5358 -1.5179 -1.5331 -1.5251
-1.4903 -1.5402 -1.5768 -1.6295 -1.7410 -1.7901
-1.8329 -1.8552 -1.8579 -1.8936 -1.8651 -1.8419
-1.8347 -1.7937 -1.7794 -1.7803 -1.7437 -1.6518
-1.5974 -1.5278 -1.4475 -1.4109 -1.2877 -1.1762
-1.1164 -1.0218 -0.9790 -0.9264 -0.8300 -0.7559
-0.6506 -0.5132 -0.4106 -0.3303 -0.2500 -0.2009
-0.0849 0.0204 0.0650 0.1605 0.1917 0.1792
0.1525 0.1061 0.0766 0.0195 -0.0688 -0.1608
-0.2589 -0.3651 -0.4874 -0.6489 -0.7818 -0.9050
-1.0388 -1.1397 -1.2530 -1.3137 -1.3494 -1.4413
-1.5618 -1.6938 -1.7697 -1.8839 -2.0276 -2.1374
-2.2864 -2.3988 -2.5318 -2.7281 -2.8620 -2.9753
-3.0770 -3.1645 -3.2840 -3.3554 -3.4304 -3.5223
-3.5821 -3.6820 -3.7641 -3.8489 -3.9649 -4.0515
-4.1541 -4.2451 -4.3424 -4.4272 -4.4682 -4.5146
-4.5432 -4.5941 -4.6244 -4.6360 -4.6744 -4.7003
-4.6726 -4.6039 -4.5860 -4.5602 -4.5111 -4.5459
-4.5566 -4.5236 -4.5191 -4.4620 -4.3924 -4.3300
-4.2862 -4.2015 -4.0614 -3.9373 -3.7830 -3.7205
-3.7151 -3.6910 -3.6946 -3.7071 -3.7437 -3.8017
-3.8677 -3.9382 -3.9498 -3.9222 -3.9454 -3.9775
-3.9659 -3.9026 -3.8437 -3.7750 -3.7295 -3.7366
-3.6688 -3.5733 -3.5019 -3.3609 -3.1958 -3.0870
-2.9397 -2.7381 -2.5194 -2.3178 -2.0929 -1.8047
-1.5539 -1.2354 -0.8695 -0.5393 -0.1851 0.1397
0.4877 0.8268 1.1052 1.4069 1.7058 1.9860
2.2608 2.5312 2.7793 3.0282 3.2513 3.4128
3.5779 3.7127 3.8019 3.8626 3.9134 3.9822
4.0526 4.1330 4.1794 4.1802 4.1785 4.2507
4.3774 4.4890 4.6139 4.6755 4.7147 4.7924
4.8067 4.8245 4.8602 4.8575 4.8370 4.8388
4.8495 4.8040 4.8093 4.8209 4.7727 4.7549
4.7192 4.6585 4.6067 4.5916 4.5728 4.5095
4.4657 4.3926 4.3078 4.2426 4.1240 4.0365
3.9401 3.7590 3.6403 3.5279 3.3940 3.2905
3.1584 3.0478 2.9505 2.8880 2.8184 2.7577
2.7729 2.7774 2.7845 2.8077 2.8309 2.8898
2.9505 2.9906 3.0227 3.0763 3.1691 3.2360
3.3029 3.3609 3.4252 3.5010 3.5189 3.5385
3.5474 3.5314 3.5055 3.4814 3.4100 3.3065
3.2440 3.1610 3.0468 2.8915 2.7291 2.5614
2.3713 2.1901 1.9519 1.7618 1.6297 1.4272
1.2219 1.0586 0.9212 0.7606 0.5643 0.3804
0.1805 -0.0167 -0.1693 -0.3263 -0.5137 -0.7100
-0.8662 -1.0036 -1.1919 -1.3632 -1.5230 -1.6997
-1.8656 -2.0361 -2.1664 -2.2993 -2.4742 -2.6402
-2.8267 -2.9945 -3.1319 -3.2836 -3.3693 -3.4282
-3.5165 -3.5995 -3.6843 -3.7476 -3.7762 -3.7878
-3.7878 -3.8226 -3.8422 -3.8226 -3.8360 -3.8128
-3.7780 -3.7798 -3.7896 -3.7941 -3.7495 -3.6691
-3.6165 -3.5567 -3.4550 -3.3595 -3.2774 -3.2114
-3.0909 -2.9722 -2.9044 -2.8339 -2.7518 -2.6001
-2.4270 -2.2468 -2.0728 -1.8631 -1.6364 -1.4347
-1.2366 -1.0662 -0.8672 -0.7236 -0.5656 -0.4309
-0.3586 -0.2194 -0.1061 -0.0115 0.0599 0.1777
0.3062 0.3571 0.4597 0.5471 0.5337 0.4980
0.5177 0.5623 0.5721 0.6310 0.7068 0.7407
0.8434 0.9308 0.9915 1.0754 1.1244 1.2065
1.2922 1.3377 1.4189 1.4965 1.5367 1.5947
1.6848 1.8142 1.9445 2.0855 2.2051 2.2836
2.3916 2.4558 2.5165 2.6137 2.7003 2.7681
2.7779 2.7860 2.8288 2.9020 2.9698 2.9983
3.0572 3.1304 3.1893 3.2464 3.2910 3.3535
3.4177 3.4579 3.4864 3.4712 3.4534 3.4811
3.4739 3.4623 3.4882 3.5132 3.5150 3.4712
3.4382 3.4088 3.3829 3.3704 3.3418 3.3124
3.2740 3.2472 3.1883 3.1089 3.0580 2.9644
2.8698 2.7966 2.6931 2.5601 2.4227 2.2647
2.1237 2.0149 1.8739 1.7954 1.7579 1.7124
1.7052 1.7097 1.6722 1.6240 1.5972 1.5508
1.5142 1.4732 1.4589 1.4018 1.2992 1.2644
1.2082 1.1314 1.0359 0.9119 0.8066 0.7191
0.6415 0.5442 0.4612 0.3881 0.3051 0.2301
0.1159 0.0097 -0.0902 -0.1759 -0.2214 -0.2286
-0.2357 -0.2286 -0.1501 -0.1260 -0.0528 0.0409
0.1034 0.2194 0.2720 0.3452 0.4549 0.5585
0.6548 0.7093 0.8074 0.9341 1.0350 1.1679
1.3366 1.5079 1.6132 1.7015 1.8104 1.8648
1.9005 1.9416 2.0379 2.0879 2.0745 2.0843
2.0977 2.1495 2.1504 2.1762 2.2673 2.3253
2.3984 2.4332 2.4573 2.5001 2.5189 2.5376
2.5439 2.5251 2.4564 2.4421 2.4627 2.4305
2.4064 2.3895 2.3913 2.3823 2.3957 2.4537
2.4626 2.4421 2.4733 2.4849 2.4662 2.4894
2.4617 2.4305 2.4153 2.3680 2.3600 2.3296
2.3029 2.3216 2.3537 2.4046 2.4403 2.4581
2.5161 2.5759 2.5242 2.5027 2.5438 2.5438
2.5973 2.6321 2.5991 2.5786 2.5554 2.4777
2.4072 2.3698 2.2948 2.2350 2.1850 2.0976
2.0101 1.9280 1.8433 1.7415 1.6291 1.5104
1.3783 1.2820 1.1927 1.0946 0.9803 0.8706
0.8063 0.7278 0.6662 0.6073 0.5859 0.5859
0.5181 0.4297 0.3432 0.2798 0.1808 0.0951
0.0469 -0.0700 -0.1753 -0.2761 -0.3663 -0.3716
-0.4269 -0.5278 -0.5492 -0.5528 -0.5563 -0.5376
-0.5198 -0.5028 -0.5287 -0.5430 -0.5100 -0.4957
-0.5430 -0.6242 -0.6715 -0.7197 -0.8562 -1.0284
-1.0739 -1.1676 -1.3176 -1.4086 -1.5817 -1.7182
-1.8262 -1.9083 -1.9627 -2.0538 -2.1189 -2.1787
-2.1974 -2.2304 -2.2929 -2.3447 -2.4214 -2.5178
-2.6445 -2.7293 -2.8007 -2.9310 -3.0148 -3.1059
-3.1710 -3.2014 -3.2495 -3.2433 -3.2424 -3.2130
-3.1514 -3.0515 -2.9372 -2.8391 -2.7266 -2.6481
-2.5651 -2.5241 -2.5134 -2.4902 -2.5125 -2.5491
-2.5589 -2.5473 -2.5339 -2.5580 -2.6071 -2.6285
-2.6232 -2.6017 -2.5821 -2.5580 -2.5232 -2.4742
-2.4492 -2.3867 -2.2841 -2.2198 -2.0655 -1.9022
-1.8013 -1.6568 -1.4631 -1.2374 -1.0455 -0.8421
-0.6118 -0.4102 -0.2040 0.0253 0.2930 0.5428
0.7695 0.9908 1.2005 1.3718 1.4985 1.6877
1.8680 2.0402 2.1946 2.3070 2.4721 2.6282
2.8022 2.9236 3.0003 3.1101 3.2020 3.2921
3.3359 3.3965 3.4447 3.4626 3.5000 3.5009
3.5107 3.4108 3.3233 3.3644 3.3064 3.2448
3.1841 3.0967 3.0235 2.9432 2.8896 2.8209
2.7406 2.6612 2.5880 2.5300 2.4693 2.4069
2.3614 2.2962 2.2569 2.2480 2.2079 2.1338
2.0276 1.9330 1.8473 1.7644 1.6439 1.5645
1.5011 1.4029 1.3146 1.1941 1.1424 1.1165
1.1254 1.1468 1.1147 1.0835 1.0183 0.9782
0.8550 0.7604 0.7542 0.7104 0.6962 0.6034
0.5552 0.5757 0.5320 0.4945 0.4481 0.4052
0.3865 0.4008 0.3847 0.3392 0.3419 0.3142
0.2919 0.2732 0.2161 0.2125 0.1688 0.1295
0.1643 0.1402 0.0938 0.0545 0.0492 0.0197
-0.0704 -0.1106 -0.1748 -0.2221 -0.2061 -0.2186
-0.2400 -0.2525 -0.2382 -0.2346 -0.2525 -0.2284
-0.2007 -0.1856 -0.1508 -0.1481 -0.1472 -0.1409
-0.1668 -0.2195 -0.2650 -0.2784 -0.2909 -0.3016
-0.3248 -0.3382 -0.3364 -0.3337 -0.3426 -0.3239
-0.2954 -0.3034 -0.2641 -0.2195 -0.1901 -0.1463
-0.1285 -0.1463 -0.1455 -0.1740 -0.2293 -0.2722
-0.3409 -0.3578 -0.3534 -0.3284 -0.2963 -0.2606
-0.2115 -0.1571 -0.0982 -0.0625 0.0098 0.0455
0.1169 0.2427 0.3480 0.4247 0.4756 0.5675
0.6656 0.7415 0.7674 0.8361 0.9066 0.9717
1.0779 1.1189 1.1939 1.2465 1.2920 1.3625
1.3759 1.3724 1.3902 1.4348 1.4544 1.5365
1.6133 1.6427 1.7105 1.7739 1.8542 1.9381
2.0228 2.1157 2.2093 2.3191 2.4467 2.5484
2.6332 2.7001 2.7394 2.7706 2.7795 2.7902
2.7510 2.7242 2.7233 2.7313 2.7242 2.6858
2.7063 2.6733 2.6296 2.6153 2.5430 2.4556
2.4154 2.3298 2.1718 2.0808 1.9532 1.8033
1.6774 1.5400 1.4195 1.2732 1.1206 0.9850
0.8841 0.7458 0.5905 0.5058 0.3853 0.2470
0.1524 0.0435 -0.0671 -0.1528 -0.2465 -0.3688
-0.4687 -0.5588 -0.6722 -0.7382 -0.7712 -0.8480
-0.9042 -0.8890 -0.9113 -0.9640 -0.9381 -0.9265
-0.9649 -1.0157 -1.0702 -1.1157 -1.1755 -1.1942
-1.2701 -1.3941 -1.4120 -1.4932 -1.5815 -1.6181
-1.7047 -1.7064 -1.7234 -1.7957 -1.7127 -1.6235
-1.6351 -1.6029 -1.5717 -1.5628 -1.5458 -1.5458
-1.5530 -1.5494 -1.5717 -1.6244 -1.6699 -1.7520
-1.7886 -1.8109 -1.8270 -1.8278 -1.8725 -1.8466
-1.7993 -1.6815 -1.6119 -1.6191 -1.5120 -1.4504
-1.3692 -1.2184 -1.1131 -1.0274 -0.9177 -0.8204
-0.7499 -0.6330 -0.5500 -0.4894 -0.4180 -0.3618
-0.2699 -0.1726 -0.0664 -0.0013 0.0728 0.1808
0.2968 0.4681 0.5770 0.6930 0.7626 0.8072
0.9544 1.0160 1.0660 1.1971 1.3033 1.3854
1.4738 1.5791 1.6594 1.6835 1.7673 1.8664
1.9137 2.0404 2.1742 2.2688 2.4089 2.5544
2.6838 2.7953 2.8935 3.0237 3.1255 3.1915
3.2941 3.3798 3.4529 3.5234 3.5797 3.6609
3.7189 3.7412 3.8108 3.8518 3.8616 3.8804
3.8893 3.9473 4.0133 4.0597 4.0901 4.1543
4.2123 4.2819 4.3801 4.4220 4.4648 4.5014
4.5335 4.5442 4.5300 4.5362 4.5817 4.6013
4.5888 4.5531 4.4782 4.4853 4.4594 4.4139
4.4032 4.3434 4.3068 4.2488 4.1926 4.1177
3.9972 3.9178 3.8312 3.7223 3.5617 3.4296
3.3190 3.1923 3.1200 3.0620 3.0209 2.8933
2.7711 2.7389 2.6203 2.5007 2.4231 2.2937
2.1964 2.1250 2.0384 1.9813 1.8912 1.7841
1.7056 1.6395 1.5762 1.4887 1.4057 1.3317
1.2166 1.1166 1.0452 0.9489 0.9176 0.8792
0.8079 0.7909 0.7570 0.7284 0.6918 0.6436
0.5874 0.5062 0.4152 0.3170 0.2510 0.1778
0.0993 0.0118 -0.0747 -0.1738 -0.2773 -0.3469
-0.4442 -0.5236 -0.6565 -0.7788 -0.8555 -0.9965
-1.1224 -1.2526 -1.3776 -1.5087 -1.6497 -1.7943
-1.9228 -2.0210 -2.1245 -2.2378 -2.3672 -2.4350
-2.5144 -2.6153 -2.6902 -2.7491 -2.8232 -2.8982
-2.9026 -2.9999 -3.0954 -3.1025 -3.1641 -3.2355
-3.2560 -3.2426 -3.2765 -3.3140 -3.3453 -3.4086
-3.4425 -3.4479 -3.5184 -3.5782 -3.5951 -3.6817
-3.7683 -3.8718 -3.9556 -4.0431 -4.1448 -4.1734
-4.2019 -4.2287 -4.2858 -4.3412 -4.3635 -4.3885
-4.3929 -4.4143 -4.4027 -4.3769 -4.3679 -4.3653
-4.3885 -4.3581 -4.3501 -4.3546 -4.3332 -4.3198
-4.2716 -4.2341 -4.1538 -4.0699 -3.9914 -3.8879
-3.8308 -3.7746 -3.7282 -3.6595 -3.5622 -3.4872
-3.3757 -3.2936 -3.2383 -3.1294 -3.0500 -2.9545
-2.8590 -2.8001 -2.6672 -2.5423 -2.3870 -2.1826
-2.0176 -1.8587 -1.6990 -1.5527 -1.4420 -1.2885
-1.1386 -1.0199 -0.8531 -0.7290 -0.6041 -0.4149
-0.2418 -0.0758 0.1553 0.4051 0.5845 0.7406
0.9218 1.1020 1.2609 1.4126 1.5643 1.7195
1.8739 2.0274 2.2094 2.3576 2.5003 2.6958
2.8519 3.0036 3.1928 3.3213 3.4694 3.6559
3.7773 3.9013 4.0111 4.0887 4.1610 4.2038
4.2359 4.2627 4.2886 4.2957 4.3046 4.3189
4.3189 4.3234 4.2921 4.2546 4.1940 4.1369
4.0904 3.9834 3.9236 3.8477 3.7049 3.5979
3.5407 3.4774 3.4051 3.3364 3.2159 3.1535
3.0928 3.0009 2.9652 2.9063 2.9134 2.9143
2.8929 2.9009 2.8955 2.9625 2.9848 2.9526
2.9625 2.9794 2.9973 2.9553 2.8607 2.8188
2.7429 2.6341 2.5270 2.3913 2.3199 2.2352
2.1102 1.9889 1.9121 1.8167 1.6489 1.5320
1.4204 1.2964 1.1465 1.0233 0.8931 0.7565
0.7244 0.6102 0.4620 0.3871 0.3157 0.1917
0.0783 0.0382 -0.0297 -0.0930 -0.1546 -0.1965
-0.2126 -0.2652 -0.2920 -0.2956 -0.3233 -0.3429
-0.3491 -0.3786 -0.3715 -0.3616 -0.3795 -0.3625
-0.3527 -0.3036 -0.2394 -0.2358 -0.2465 -0.2287
-0.1627 -0.1261 -0.0895 -0.0520 -0.0235 0.0551
0.1273 0.1746 0.1951 0.2594 0.3388 0.3825
0.3825 0.3977 0.4950 0.5690 0.6734 0.7698
0.8760 0.9929 1.0116 1.1116 1.2766 1.3828
1.4631 1.5595 1.6523 1.7737 1.9655 2.1003
2.2252 2.4108 2.5598 2.6785 2.8302 2.9658
3.0890 3.2255 3.3397 3.4432 3.5307 3.6119
3.6806 3.7475 3.8135 3.8903 3.9813 4.0241
4.0268 4.0348 4.0732 4.0893 4.1196 4.1142
4.0152 3.9581 3.9170 3.8198 3.7270 3.6493
3.5619 3.4360 3.2951 3.1666 3.0148 2.8730
2.7123 2.5303 2.3670 2.2322 2.0993 1.9012
1.7209 1.5630 1.3890 1.1810 0.9928 0.8544
0.7259 0.6429 0.5573 0.4672 0.4368 0.3761
0.2708 0.2280 0.1932 0.1611 0.1405 0.1102
0.0834 0.0763 0.0923 0.0709 0.0816 0.1387
0.1512 0.1789 0.2155 0.2396 0.3172 0.4055
0.5064 0.5858 0.6001 0.6277 0.6117 0.5920
0.5751 0.5117 0.4501 0.3903 0.3573 0.2922
0.1949 0.1164 0.0209 -0.0291 -0.0603 -0.1487
-0.1933 -0.2745 -0.3923 -0.4842 -0.6198 -0.7073
-0.7894 -0.8822 -0.9429 -1.0089 -1.1017 -1.1829
-1.2231 -1.2784 -1.3248 -1.3775 -1.4319 -1.5193
-1.6550 -1.7505 -1.8147 -1.8924 -1.9745 -2.0566
-2.1288 -2.1735 -2.2493 -2.3198 -2.3287 -2.3377
-2.3377 -2.4037 -2.4519 -2.4323 -2.4653 -2.4858
-2.5500 -2.5884 -2.5857 -2.5750 -2.5420 -2.5197
-2.4644 -2.4608 -2.4260 -2.4153 -2.4573 -2.4385
-2.4198 -2.3877 -2.3582 -2.3350 -2.3172 -2.3011
-2.2565 -2.2244 -2.1601 -2.0200 -1.9139 -1.8532
-1.7398 -1.5899 -1.4177 -1.2794 -1.1795 -0.9956
-0.8591 -0.7592 -0.6298 -0.5254 -0.4112 -0.3612
-0.3121 -0.1952 -0.0997 -0.0453 0.0876 0.2340
0.3259 0.4455 0.5008 0.5811 0.6971 0.7935
0.8729 0.9487 1.0915 1.1924 1.2834 1.3699
1.5065 1.6403 1.7028 1.8161 1.8652 1.9276
1.9812 2.0142 2.1007 2.1097 2.1703 2.2399
2.2774 2.3488 2.4006 2.4880 2.5398 2.5799
2.7307 2.8244 2.8119 2.8690 2.9047 2.8762
2.8726 2.8494 2.8065 2.7441 2.7209 2.6941
2.6200 2.5968 2.5754 2.5594 2.5460 2.5272
2.5183 2.5245 2.5236 2.4415 2.4067 2.4076
2.3657 2.3282 2.3068 2.2764 2.1703 2.0810
1.9962 1.8909 1.8035 1.6893 1.6000 1.4974
1.3671 1.2342 1.0967 1.0066 0.9156 0.7898
0.6871 0.6193 0.5435 0.4516 0.4078 0.3695
0.3302 0.2749 0.2035 0.1705 0.1321 0.1089
0.0955 0.0651 0.0339 0.0277 0.0143 -0.0080
-0.0045 -0.0143 -0.0223 -0.0054 0.0036 -0.0179
-0.0268 -0.0116 -0.0518 -0.0786 -0.0741 -0.0759
-0.0411 -0.0634 -0.0875 -0.0384 -0.0134 -0.0393
-0.0661 -0.0866 -0.1000 -0.0384 -0.0429 -0.0991
-0.0652 -0.0304 -0.0081 0.0437 0.1266 0.1293
0.1204 0.1436 0.1266 0.1275 0.1320 0.1034
0.0740 0.1195 0.1097 0.0722 0.1043 0.1543
0.2560 0.3078 0.3336 0.4113 0.4916 0.5719
0.5879 0.5754 0.6111 0.6120 0.5853 0.5781
0.5799 0.5504 0.5094 0.4915 0.4327 0.3595
0.3336 0.3256 0.2720 0.1980 0.1685 0.1141
0.0534 -0.0234 -0.0653 -0.1188 -0.2393 -0.2563
-0.2911 -0.2875 -0.3027 -0.3268 -0.2090 -0.1947
-0.1724 -0.0680 0.0275 0.0926 0.1203 0.1863
0.2479 0.3246 0.4210 0.4727 0.5566 0.6628
0.7395 0.8011 0.8743 0.9912 1.0786 1.1340
1.1732 1.2044 1.2571 1.2910 1.3080 1.3436
1.3900 1.3999 1.3838 1.3829 1.4141 1.4534
1.4819 1.5025 1.4846 1.4935 1.4605 1.4034
1.4355 1.4230 1.4462 1.4650 1.4471 1.5194
1.5542 1.5435 1.5640 1.6068 1.6256 1.6907
1.7639 1.7835 1.8504 1.8852 1.9191 1.9343
1.9236 1.9611 1.9629 1.9441 1.9138 1.9049
1.9352 1.9950 2.0235 2.0664 2.1699 2.2386
2.3269 2.3903 2.4697 2.5277 2.5339 2.5777
2.5812 2.6151 2.5982 2.5901 2.6267 2.6017
2.6000 2.5750 2.5321 2.5312 2.5312 2.4741
2.4527 2.4304 2.3929 2.3679 2.3340 2.3340
2.2617 2.1868 2.1127 2.0395 1.9878 1.9262
1.9030 1.8842 1.8637 1.8048 1.7691 1.7325
1.6585 1.6576 1.6219 1.6049 1.6781 1.7120
1.7504 1.7896 1.8325 1.9297 1.9877 1.9833
1.9993 2.0386 2.0511 2.0725 2.1626 2.2679
2.3295 2.3491 2.4187 2.5070 2.5249 2.5517
2.5775 2.5981 2.6275 2.6311 2.6239 2.5954
2.5856 2.5391 2.4990 2.4794 2.4142 2.3705
2.2937 2.2545 2.2438 2.2116 2.1572 2.0796
2.0233 1.9528 1.9502 1.9537 1.9261 1.9171
1.8788 1.8556 1.8359 1.8074 1.7815 1.7369
1.6815 1.6485 1.6467 1.6173 1.6191 1.5994
1.5075 1.4602 1.4468 1.4352 1.4022 1.3496
1.2853 1.3255 1.3558 1.2933 1.2514 1.1175
1.0114 0.9614 0.8561 0.7481 0.6330 0.4991
0.3805 0.2341 0.0583 -0.0577 -0.1576 -0.2870
-0.4102 -0.5414 -0.6868 -0.8082 -0.9483 -1.0625
-1.1401 -1.2267 -1.2918 -1.3864 -1.4712 -1.5694
-1.6568 -1.7023 -1.7693 -1.8523 -1.9522 -1.9977
-2.0673 -2.2083 -2.3074 -2.3564 -2.4136 -2.5099
-2.5287 -2.5769 -2.6982 -2.7009 -2.7384 -2.8249
-2.8669 -2.8838 -2.8580 -2.8491 -2.8553 -2.8919
-2.9713 -3.0213 -3.0686 -3.1132 -3.0588 -3.0088
-2.9856 -2.8794 -2.7625 -2.7063 -2.6331 -2.5073
-2.4181 -2.3583 -2.2985 -2.2146 -2.1067 -2.0237
-1.9175 -1.8363 -1.8407 -1.7917 -1.7123 -1.6864
-1.5766 -1.4472 -1.3785 -1.2688 -1.1867 -1.1287
-1.0832 -1.0501 -0.9948 -0.9591 -0.8806 -0.8280
-0.8146 -0.7914 -0.7575 -0.6905 -0.6522 -0.6102
-0.5746 -0.5692 -0.5299 -0.4773 -0.4461 -0.3952
-0.3479 -0.3042 -0.2854 -0.2988 -0.2560 -0.2640
-0.2667 -0.2159 -0.2355 -0.2881 -0.3283 -0.3399
-0.3319 -0.3515 -0.3908 -0.3979 -0.4158 -0.4497
-0.5032 -0.5478 -0.5166 -0.4925 -0.4773 -0.4461
-0.3970 -0.3596 -0.3658 -0.3292 -0.2712 -0.2980
-0.3471 -0.3185 -0.3337 -0.4042 -0.3997 -0.3578
-0.3408 -0.3141 -0.2614 -0.2124 -0.1472 -0.1071
-0.0839 -0.0027 0.1000 0.1517 0.2044 0.2632
0.3311 0.4248 0.4837 0.5559 0.6077 0.6621
0.7415 0.8477 0.9387 0.9111 0.9539 0.9941
0.9887 1.0663 1.0806 1.0851 1.1288 1.1190
1.1475 1.2278 1.2394 1.2341 1.2662 1.2760
1.2653 1.3126 1.3813 1.4393 1.5062 1.5464
1.6071 1.7079 1.8025 1.8560 1.9158 1.9684
1.9836 2.0211 2.0354 2.0282 2.0434 2.0719
2.0425 2.0086 2.0470 2.0443 2.0202 2.0202
1.9979 1.9764 2.0121 2.0184 1.9845 1.9497
1.8854 1.8337 1.7364 1.6507 1.6097 1.5383
1.4285 1.3375 1.2795 1.1813 1.0867 0.9672
0.8851 0.8217 0.7298 0.6736 0.5826 0.5174
0.4371 0.3175 0.2086 0.1524 0.1185 0.0123
-0.0377 -0.0823 -0.1019 -0.0930 -0.1920 -0.2384
-0.2295 -0.2527 -0.2724 -0.2866 -0.2902 -0.2884
-0.2902 -0.2733 -0.2545 -0.2652 -0.2206 -0.1662
-0.1474 -0.1234 -0.1269 -0.1073 -0.0636 -0.0457
-0.0047 0.0185 -0.0074 0.0158 0.0265 0.0783
0.1256 0.1506 0.2594 0.2889 0.3174 0.3406
0.3647 0.4040 0.4379 0.5610 0.6048 0.6529
0.7002 0.7199 0.8403 0.9197 1.0197 1.0911
1.1339 1.2553 1.3329 1.4087 1.4435 1.4846
1.5283 1.4989 1.5176 1.5497 1.5908 1.6113
1.6327 1.6479 1.6193 1.6666 1.6907 1.6871
1.7273 1.7291 1.7183 1.6969 1.6550 1.6220
1.5818 1.5256 1.4676 1.4435 1.4051 1.3453
1.3239 1.2855 1.2463 1.2275 1.2302 1.2275
1.1499 1.1070 1.0374 0.9482 0.8759 0.7662
0.6983 0.5832 0.4958 0.4565 0.3851 0.3423
0.3075 0.2852 0.2816 0.2807 0.2959 0.2932
0.3030 0.3208 0.3289 0.3646 0.3208 0.3423
0.4252 0.4181 0.4743 0.5011 0.5127 0.5421
0.5421 0.6046 0.6608 0.7393 0.8107 0.8330
0.8946 0.9330 0.9562 0.9883 1.0284 1.1061
1.1453 1.2006 1.2756 1.3907 1.5112 1.5603
1.6736 1.7601 1.8083 1.8895 1.9761 2.0841
2.1376 2.1670 2.2456 2.3393 2.4115 2.5088
2.6061 2.6926 2.7720 2.8068 2.9139 3.0165
3.0469 3.1370 3.2280 3.2735 3.3039 3.3092
3.3092 3.2940 3.2557 3.2574 3.2396 3.1798
3.1753 3.1504 3.0915 3.0549 3.0227 3.0424
3.0209 2.9335 2.8907 2.8657 2.8130 2.7622
2.7042 2.6033 2.5328 2.4275 2.3668 2.3463
2.2624 2.2276 2.1812 2.1214 2.0393 1.9894
1.9742 1.9189 1.8537 1.7573 1.7118 1.6583
1.5690 1.4905 1.4138 1.3665 1.2692 1.1568
1.0640 0.9979 0.9551 0.8989 0.8525 0.7606
0.6749 0.6151 0.5464 0.5053 0.4500 0.3750
0.2938 0.2323 0.1921 0.1279 0.0743 0.0288
-0.0069 -0.0319 -0.0845 -0.1425 -0.1595 -0.2371
-0.3719 -0.4486 -0.5593 -0.6494 -0.7012 -0.7842
-0.8074 -0.8547 -0.9314 -0.9305 -0.9501 -1.0073
-1.0135 -1.0447 -1.1036 -1.1099 -1.1179 -1.1385
-1.1956 -1.3071 -1.3794 -1.3847 -1.3526 -1.2964
-1.2687 -1.3268 -1.3517 -1.3946 -1.5017 -1.5481
-1.6034 -1.6703 -1.7729 -1.8301 -1.8354 -1.9380
-1.9907 -2.0157 -2.0353 -2.0808 -2.1924 -2.2406
-2.2754 -2.3307 -2.3967 -2.4494 -2.5038 -2.5600
-2.5484 -2.5556 -2.6011 -2.6404 -2.6511 -2.6600
-2.6903 -2.7305 -2.7956 -2.8001 -2.8260 -2.8759
-2.8706 -2.9036 -2.8974 -2.8920 -2.9447 -2.9241
-2.8769 -2.8429 -2.7912 -2.7466 -2.6930 -2.6582
-2.6333 -2.5521 -2.4682 -2.4013 -2.2647 -2.1862
-2.1639 -2.0390 -1.9471 -1.8641 -1.7097 -1.5758
-1.4946 -1.4197 -1.3126 -1.2252 -1.1190 -1.0199
-0.9459 -0.8388 -0.7549 -0.6817 -0.6139 -0.5657
-0.4979 -0.4346 -0.3534 -0.2302 -0.1446 -0.0616
0.0250 0.1410 0.2713 0.3730 0.4738 0.5354
0.6362 0.7192 0.8120 0.9369 1.0190 1.1154
1.1734 1.2734 1.3492 1.3786 1.5027 1.5642
1.5946 1.6811 1.6990 1.6901 1.7106 1.7240
1.7070 1.6802 1.6892 1.6883 1.6820 1.6535
1.6267 1.5972 1.5214 1.4643 1.4170 1.3331
1.2563 1.2581 1.2019 1.1698 1.1841 1.1287
1.0716 0.9868 0.9752 0.9360 0.8985 0.9235
0.8815 0.8985 0.8887 0.8530 0.8494 0.8449
0.8672 0.8726 0.8699 0.8512 0.8387 0.8253
0.8387 0.8369 0.8645 0.9092 0.8458 0.8726
0.9431 0.9431 0.9154 0.9698 1.0912 1.0787
1.0885 1.1777 1.2000 1.2107 1.2339 1.2554
1.2875 1.3223 1.3803 1.4615 1.5855 1.6872
1.7863 1.8541 1.9032 2.0165 2.0495 2.1352
2.2155 2.2557 2.3824 2.4243 2.4796 2.5305
2.5483 2.6144 2.6260 2.6179 2.6367 2.6581
2.6857 2.6768 2.6349 2.6099 2.5519 2.5287
2.5617 2.5126 2.4296 2.4243 2.4573 2.4537
2.4644 2.4457 2.4064 2.4055 2.3939 2.3359
2.2511 2.2404 2.1922 2.0905 2.0316 1.9816
1.9183 1.8228 1.7532 1.7023 1.6532 1.6363
1.6229 1.5818 1.5381 1.5310 1.5310 1.5220
1.4667 1.3694 1.3364 1.3346 1.2918 1.2650
1.2472 1.2186 1.2249 1.2267 1.2124 1.2293
1.2275 1.2293 1.2650 1.2953 1.3284 1.3542
1.3721 1.3685 1.3917 1.4212 1.4408 1.4667
1.4488 1.4818 1.5264 1.5336 1.5416 1.5354
1.5291 1.5541 1.5577 1.5541 1.5987 1.5621
1.5425 1.5398 1.4889 1.5130 1.5014 1.4943
1.4934 1.4238 1.3863 1.3836 1.3720 1.3265
1.2917 1.2864 1.2631 1.2391 1.1989 1.1248
1.0722 1.0213 0.9892 0.9347 0.8714 0.8660
0.8196 0.7509 0.7232 0.7250 0.6554 0.5894
0.6019 0.5430 0.4653 0.4180 0.3806 0.2860
0.1735 0.1619 0.1610 0.0968 0.0388 0.0192
-0.0371 -0.0772 -0.0906 -0.1352 -0.1352 -0.1120
-0.1656 -0.1950 -0.1424 -0.1558 -0.1843 -0.1486
-0.1424 -0.1477 -0.1031 -0.0603 -0.0175 0.0396
0.0985 0.1342 0.1717 0.2707 0.3189 0.3359
0.3841 0.4340 0.5072 0.5902 0.6651 0.7223
0.8097 0.8847 0.9712 1.0908 1.1568 1.2121
1.2728 1.3754 1.5013 1.5958 1.6431 1.6387
1.6601 1.6208 1.3879 1.1604 1.2103 1.3406
1.4022 1.4093 1.3058 1.2933 1.3103 1.2532
1.2067 1.1684 1.0881 1.0461 1.0461 0.9881
0.9640 0.9274 0.9319 0.8980 0.8739 0.9328
0.8391 0.7766 0.7891 0.7944 0.7775 0.7632
0.7819 0.7748 0.7757 0.7230 0.6731 0.5954
0.5820 0.5928 0.4071 0.3366 0.2983 0.1412
0.0332 -0.0685 -0.1426 -0.1729 -0.1649 -0.1800
-0.2273 -0.2398 -0.2184 -0.1997 -0.2104 -0.1792
-0.2202 -0.3103 -0.3255 -0.3675 -0.4237 -0.4924
-0.5593 -0.5531 -0.5816 -0.6673 -0.6718 -0.7280
-0.7967 -0.8467 -0.8645 -0.8226 -0.9029 -0.9109
-1.0118 -1.1215 -1.0653 -1.1242 -1.1902 -1.2251
-1.2036 -1.2831 -1.3759 -1.3286 -1.3330 -1.3536
-1.4571 -1.4642 -1.4259 -1.5526 -1.4607 -1.3571
-1.4330 -1.3670 -1.3875 -1.2260 -1.4125 -1.9961
-1.9149 -1.8007 -1.7221 -1.7132 -1.4991 -1.1394
-1.2902 -1.1234 -0.9315 -0.9217 -0.7816 -0.6826
-0.5005 -0.4470 -0.3881 -0.2355 -0.2177 -0.0740
-0.0106 -0.1142 -0.0936 -0.0455 0.0277 0.2544
0.3507 0.2383 0.3418 0.2713 0.1562 0.1749
0.0875 0.1821 0.1660 0.0768 0.0803 0.0313
-0.0125 0.0152 0.0116 0.0054 0.0669 -0.0161
-0.0848 -0.0705 -0.1026 -0.1820 -0.0964 -0.0107
-0.1713 -0.2311 -0.2293 -0.2186 -0.2070 -0.2981
-0.3918 -0.5131 -0.7041 -0.7648 -0.6854 -0.7791
-1.0271 -1.0851 -1.0414 -1.0887 -0.9897 -0.9870
-1.1298 -1.0316 -0.9513 -0.9459 -0.8879 -0.8862
-0.8790 -0.8558 -0.8469 -0.8335 -0.8300 -0.8103
-0.7907 -0.7461 -0.6765 -0.6658 -0.6301 -0.5792
-0.5578 -0.5016 -0.4534 -0.3758 -0.2821 -0.2187
-0.1384 -0.0751 -0.0063 0.0802 0.1605 0.2381
0.2738 0.3372 0.4309 0.4951 0.5692 0.6308
0.6549 0.7030 0.7735 0.8101 0.8378 0.9154
0.9600 0.9466 0.9805 0.9993 1.0725 1.1126
1.0582 1.0707 1.0707 1.1296 1.1278 1.1340
0.9493 0.6129 0.6352 0.5424 0.5451 0.4960
0.3612 0.4576 0.3148 0.2247 0.0123 -0.0796
-0.0823 -0.2144 -0.3000 -0.6659 -0.7971 -0.8462
-0.9229 -0.9452 -1.0630 -1.2138 -1.3084 -1.2468
-1.4342 -1.5422 -1.5163 -1.7162 -1.9143 -1.9259
-2.0009 -2.1410 -2.0250 -2.0535 -2.2070 -2.2070
-2.3034 -2.4025 -2.3882 -2.4150 -2.4533 -2.5301
-2.5533 -2.5515 -2.6416 -2.6514 -2.7460 -2.7889
-2.7674 -2.8442 -2.9664 -3.1431 -3.0548 -3.0378
-3.2556 -3.2734 -3.2574 -3.1467 -3.0387 -3.2038
-3.1762 -2.9638 -2.8630 -2.9692 -3.1681 -3.0655
-2.9272 -2.8184 -2.7559 -2.8264 -2.7202 -2.5016
-2.3865 -2.4043 -2.2553 -2.0474 -1.9251 -1.8439
-1.8805 -1.8323 -1.7931 -1.6235 -1.4308 -1.4558
-1.5343 -1.5486 -1.2711 -1.0275 -0.9329 -0.8954
-0.8936 -0.7267 -0.6027 -0.5429 -0.5215 -0.5581
-0.5135 -0.4251 -0.3448 -0.3020 -0.2984 -0.2868
-0.3190 -0.3841 -0.3074 -0.3431 -0.2413 0.0157
-0.1218 -0.1128 -0.0049 -0.1494 -0.1423 0.0710
0.1861 0.1763 0.1495 0.1325 0.1432 0.1959
0.1361 0.1093 0.1441 0.2191 0.4225 0.1994
0.3083 0.4154 0.3806 0.6153 0.2869 0.5216
0.7161 0.6510 0.6617 0.3056 0.4966 0.5947
0.5180 0.6402 0.5180 0.1985 0.2824 0.4100
0.3993 0.2645 -0.1102 0.0691 0.0227 -0.2218
-0.0710 0.1271 -0.0888 -0.3985 -0.2156 -0.1058
0.0932 0.1235 -0.0023 0.0120 -0.1022 -0.1442
-0.1540 -0.1496 -0.1754 -0.1861 -0.2209 -0.2531
-0.2210 -0.1576 -0.0880 -0.1451 -0.1290 -0.2103
-0.2459 -0.1728 -0.1326 -0.0193 -0.0470 0.0209
0.0253 0.0316 0.1172 0.0690 0.1592 0.2154
0.2564 0.3100 0.2725 0.3314 0.4991 0.5348
0.5866 0.6464 0.6267 0.8346 0.9524 1.0140
1.1059 1.1104 1.2210 1.2317 1.2157 1.2496
1.2745 1.3317 1.3085 1.3852 1.5199 1.5387
1.6101 1.5690 1.5922 1.7698 1.7332 1.7974
1.9010 1.9482 2.0696 2.1080 2.1981 2.2472
2.3293 2.4720 2.4355 2.4586 2.5443 2.6523
2.6683 2.6309 2.6790 2.5791 2.7040 2.8557
2.8227 2.8539 2.8602 2.8745 2.8405 2.9066
2.9360 2.9887 3.0502 3.0253 3.1948 3.2278
3.2457 3.3072 3.2724 3.3536 3.3956 3.4268
3.4750 3.4884 3.5294 3.5722 3.6133 3.6873
3.7257 3.7364 3.7917 3.8417 3.9202 3.9506
3.8881 3.8319 3.8408 3.8622 3.8426 3.7953
3.7730 3.8069 3.6802 3.5526 3.6248 3.6195
3.4892 3.4374 3.4267 3.3946 3.3223 3.1894
3.1037 3.0501 3.0644 2.9199 2.7807 2.8065
2.7298 2.6575 2.5067 2.4362 2.3568 2.1979
2.1158 2.0525 1.9615 1.7973 1.7625 1.6357
1.5483 1.4439 1.2261 1.1280 1.0405 0.9638
0.7300 0.6497 0.5935 0.4319 0.3534 0.1794
0.0848 -0.0544 -0.1401 -0.2240 -0.3739 -0.4176
-0.5167 -0.6389 -0.7237 -0.7246 -0.8406 -0.9432
-1.0092 -1.1154 -1.1324 -1.2930 -1.3689 -1.4188
-1.5090 -1.5393 -1.6589 -1.7026 -1.6259 -1.5277
-1.5866 -1.6214 -1.5759 -1.5375 -1.4965 -1.4920
-1.4956 -1.5706 -1.4912 -1.5099 -1.5108 -1.3288
-1.3502 -1.3225 -1.2886 -1.2708 -1.2360 -1.2217
-1.1155 -1.0405 -1.0165 -0.9415 -0.9085 -0.9174
-0.7666 -0.7862 -0.7729 -0.5667 -0.6381 -0.5980
-0.5239 -0.5498 -0.5293 -0.5462 -0.4570 -0.3713
-0.3454 -0.3651 -0.2303 -0.2526 -0.3820 -0.2036
-0.0965 -0.1500 -0.2107 -0.1884 -0.1224 -0.0679
-0.0519 0.0954 0.0900 0.0132 0.1087 0.1301
0.2979 0.3041 0.3773 0.5344 0.5656 0.6468
0.5183 0.5736 0.8520 0.9234 0.7824 0.8021
0.9921 0.9787 0.9796 1.0028 0.9555 1.0046
0.9163 0.8342 0.8725 0.8806 0.9850 0.9796
0.8868 0.8234 0.8225 0.9091 0.8190 0.7146
0.6191 0.4683 0.5245 0.5825 0.5236 0.4254
0.2764 0.1122 0.0613 0.1854 0.1390 0.0408
-0.0208 -0.0547 -0.0225 -0.1421 -0.2019 -0.2528
-0.3947 -0.5098 -0.5544 -0.5339 -0.6035 -0.8462
-0.8757 -0.8061 -1.0265 -0.9819 -0.9819 -1.1684
-1.2264 -1.3852 -1.3540 -1.3602 -1.4620 -1.4869
-1.6538 -1.6654 -1.5940 -1.7725 -1.8930 -1.9626
-2.1955 -2.1446 -2.0661 -2.2348 -2.3026 -2.3838
-2.4810 -2.5114 -2.5007 -2.5632 -2.6399 -2.6774
-2.7238 -2.7952 -2.9745 -3.1601 -3.2842 -3.1905
-3.1298 -3.1673 -2.9826 -2.9719 -3.0656 -3.0272
-3.1504 -3.2699 -3.1147 -2.9737 -2.9362 -2.9014
-2.8925 -2.7622 -2.7800 -2.7568 -2.5837 -2.5320
-2.4427 -2.4035 -2.3580 -2.2919 -2.1581 -2.1063
-2.1010 -1.9921 -1.9868 -1.9163 -1.8806 -1.8502
-1.7003 -1.5915 -1.4969 -1.4425 -1.4237 -1.3193
-1.2720 -1.2524 -1.1301 -1.0918 -0.9740 -0.7625
-0.6813 -0.6376 -0.5055 -0.5046 -0.5243 -0.2619
-0.0192 0.0567 0.0620 -0.0469 -0.1763 -0.1102
-0.0085 0.0013 -0.0326 0.0227 0.1271 0.0665
0.1369 0.2155 0.1592 0.2039 0.2128 0.1798
0.2146 0.2422 0.1923 0.1985 0.3216 0.3618
0.2547 0.1628 0.2021 0.1842 0.1128 0.1333
0.0298 -0.0906 0.0691 0.1967 0.1628 0.1637
0.0557 0.1048 0.1128 0.0298 0.1521 0.1574
0.3261 0.2689 0.0075 0.1360 0.1181 0.1306
0.3162 0.2877 0.2877 0.2618 0.2716 0.4179
0.4340 0.3608 0.3492 0.4697 0.5741 0.6223
0.5393 0.6098 0.6812 0.6339 0.7061 0.6374
0.6696 0.6187 0.6312 0.8079 0.7820 0.8034
0.8436 0.7873 0.7400 0.7552 0.7713 0.7766
0.7891 0.7641 0.6642 0.7382 0.8971 0.7686
0.7498 0.8471 0.7347 0.8230 0.8997 0.7543
0.7909 0.8605 0.8034 0.8078 0.8979 0.8658
0.7516 0.7123 0.7204 0.6963 0.6722 0.6177
0.5713 0.5249 0.2875 0.1965 0.2813 0.2313
0.0823 0.1287 0.1573 -0.0373 0.0207 0.0591
0.0341 -0.0007 -0.1631 -0.2095 -0.2907 -0.4594
-0.6619 -0.8270 -0.8601 -0.8681 -0.8842 -0.9127
-0.9404 -0.9252 -0.9841 -1.0439 -1.0269 -0.9038
-1.0002 -1.1724 -1.0796 -1.1715 -1.1403 -1.1483
-1.2268 -1.0939 -1.1742 -1.2215 -1.2608 -1.3125
-1.2893 -1.2929 -1.2545 -1.3375 -1.4134 -1.3848
-1.3152 -1.3152 -1.3420 -1.2224 -1.2376 -1.2340
-1.2260 -1.2590 -1.1546 -1.2117 -1.2688 -1.2546
-1.2831 -1.2662 -1.1769 -1.1332 -1.1546 -1.1680
-1.0948 -1.0047 -1.1288 -1.1154 -1.0975 -1.2278
-1.1859 -1.1091 -1.0422 -1.0306 -0.9298 -0.7513
-0.7585 -0.7513 -0.6933 -0.6621 -0.5818 -0.5247
-0.4461 -0.4560 -0.4908 -0.3301 -0.2088 -0.1597
-0.1901 -0.0803 0.0848 -0.0161 0.0250 0.1990
0.2722 0.3132 0.3971 0.4399 0.4703 0.5595
0.6202 0.7103 0.7674 0.8236 0.9405 1.0235
0.9111 0.8120 1.0039 1.0699 1.0940 1.1422
1.0788 1.1895 1.2546 1.3206 1.5437 1.5857
1.4473 1.5758 1.6151 1.5036 1.6731 1.6642
1.7489 1.8810 1.7132 1.7016 1.6552 1.5437
1.6133 1.6240 1.6293 1.7364 1.7355 1.6963
1.7668 1.8283 1.8997 2.0327 2.1085 2.1460
2.0791 1.9809 1.9925 2.0684 2.0389 1.9889
2.0282 2.0023 2.0326 1.8720 1.6605 1.7114
1.7292 1.6186 1.5508 1.5758 1.4107 1.3866
1.4098 1.3562 1.3295 1.0849 1.1313 1.1751
1.0591 1.0403 0.8824 0.8877 0.8654 0.7878
0.8137 0.6637 0.6173 0.6432 0.5459 0.5343
0.5629 0.3969 0.2738 0.3683 0.3335 0.2372
0.2550 0.2577 0.2425 0.2916 0.2639 0.2015
0.1854 0.1783 0.0846 -0.0787 -0.0315 -0.0395
-0.1091 -0.0520 -0.0600 -0.1118 -0.1858 -0.2189
-0.2037 -0.2367 -0.2055 -0.2412 -0.3840 -0.2858
-0.3206 -0.4714 -0.4473 -0.4241 -0.2358 -0.1198
-0.0708 0.0194 -0.0440 -0.0940 -0.0395 0.0488
0.0524 0.1095 0.1987 0.1755 0.1942 0.2522
0.2888 0.2728 0.3004 0.2844 0.3022 0.4120
0.3200 0.3049 0.3040 0.2183 0.2817 0.3548
0.4227 0.4833 0.4235 0.3352 0.3673 0.3637
0.3289 0.3539 0.3664 0.3628 0.3548 0.3182
0.2968 0.4030 0.4708 0.3807 0.2995 0.3468
0.4315 0.3958 0.4253 0.4833 0.4030 0.4056
0.4547 0.4404 0.4494 0.4833 0.4851 0.4636
0.4369 0.3958 0.4333 0.5207 0.5966 0.6010
0.5118 0.5314 0.5671 0.4922 0.4484 0.4779
0.4984 0.4832 0.4877 0.4190 0.4377 0.4600
0.3967 0.5528 0.6322 0.5127 0.4832 0.5644
0.6046 0.6171 0.6608 0.6269 0.5555 0.6492
0.6519 0.5501 0.5742 0.5216 0.5956 0.6590
0.6599 0.7000 0.6572 0.7250 0.6991 0.6349
0.7482 0.8116 0.8035 0.7857 0.7027 0.6964
0.8303 0.9017 0.9124 0.8740 0.7990 0.8562
0.8856 0.8517 0.9070 0.9597 0.9704 0.9882
0.9864 0.9855 1.0623 1.0917 1.1283 1.2095
1.1890 1.2006 1.2550 1.2675 1.3737 1.4638
1.4183 1.4540 1.5111 1.4995 1.5031 1.4816
1.3826 1.4665 1.6298 1.5423 1.4816 1.4673
1.4888 1.4664 1.3719 1.4263 1.4049 1.2969
1.2460 1.1630 1.1880 1.3094 1.1666 1.0551
1.1300 1.0550 0.9854 0.9506 0.9007 0.8337
0.7177 0.5598 0.5045 0.4955 0.4420 0.4652
0.4036 0.4339 0.4447 0.3367 0.2822 0.1457
0.0877 0.0324 -0.0756 -0.1943 -0.2193 -0.0836
-0.0515 -0.0239 -0.0988 -0.2113 -0.2425 -0.2657
-0.1577 -0.1417 -0.1310 -0.1506 -0.2059 -0.0971
-0.0426 -0.0453 -0.0810 -0.0783 -0.0872 -0.1577
-0.1515 -0.1917 -0.1444 -0.0525 -0.2247 -0.3621
-0.2675 -0.2640 -0.2925 -0.2354 -0.2515 -0.2889
-0.2925 -0.2934 -0.3059 -0.3059 -0.2845 -0.2426
-0.2283 -0.2479 -0.2417 -0.2542 -0.2738 -0.2586
-0.2381 -0.2809 -0.2622 -0.1623 -0.1971 -0.2738
-0.2069 -0.1712 -0.3131 -0.3586 -0.3042 -0.3086
-0.2703 -0.3051 -0.4639 -0.4095 -0.3497 -0.3122
-0.2685 -0.5621 -0.5246 -0.2712 -0.2399 -0.2765
-0.3051 -0.2060 -0.3256 -0.3845 -0.3113 -0.3354
-0.2649 -0.2337 -0.2418 -0.2614 -0.2667 -0.2989
-0.3765 -0.3283 -0.3337 -0.4069 -0.4666 -0.4809
-0.4756 -0.5211 -0.4533 -0.3997 -0.3971 -0.3444
-0.2811 -0.2623 -0.3524 -0.3150 -0.1909 -0.2650
-0.1972 -0.0375 -0.0062 0.0661 0.0482 0.1098
0.1642 0.0768 0.1071 0.1294 0.0741 0.0616
0.1258 0.1214 0.1401 0.2186 0.1847 0.2115
0.2365 0.1954 0.2293 0.1169 0.0946 0.2168
0.1713 0.1588 0.1213 0.0972 0.1267 0.1213
0.1267 0.1418 0.0035 -0.1625 -0.0340 -0.0009
-0.0661 -0.0857 -0.1062 -0.1089 -0.1321 -0.0929
-0.1625 -0.2026 -0.1152 -0.1036 -0.1696 -0.1652
-0.1411 -0.1884 -0.1893 -0.2428 -0.2937 -0.3213
-0.3508 -0.3481 -0.3624 -0.4507 -0.4686 -0.3678
-0.4802 -0.4552 -0.4436 -0.6265 -0.6239 -0.5578
-0.4766 -0.4909 -0.5471 -0.6640 -0.7506 -0.6685
-0.6569 -0.6060 -0.5543 -0.7229 -0.8042 -0.7185
-0.7185 -0.7078 -0.6783 -0.6667 -0.6266 -0.6944
-0.6730 -0.4785 -0.5463 -0.6007 -0.5695 -0.7355
-0.6543 -0.5517 -0.6150 -0.5659 -0.6043 -0.6364
-0.6007 -0.5766 -0.5668 -0.6150 -0.7230 -0.7917
-0.6516 -0.5642 -0.6240 -0.6311 -0.5508 -0.5294
-0.5758 -0.4901 -0.4357 -0.4000 -0.3027 -0.3152
-0.3179 -0.2233 -0.1609 -0.1261 -0.0591 -0.0163
0.0140 0.1354 0.0569 -0.0493 0.1961 0.3344
0.4165 0.4771 0.4780 0.5949 0.6976 0.7716
0.8805 0.9902 1.0117 1.1393 1.1874 1.1812
1.2677 1.3525 1.5122 1.6104 1.6862 1.7603
1.8237 1.8826 1.9504 2.0476 2.1628 2.1833
2.2252 2.3894 2.5054 2.5946 2.6446 2.7731
2.8025 2.8213 2.9748 3.0149 3.0747 3.1042
3.1506 3.2353 3.2237 3.2094 3.2032 3.2175
3.2353 3.2085 3.2424 3.3504 3.3647 3.2175
3.0381 2.9872 3.0256 3.0470 3.0631 3.0622
3.0550 3.0586 3.0140 3.0104 3.0220 2.9872
2.9676 2.9381 2.8605 2.8203 2.9470 2.9461
2.7462 2.7918 2.8239 2.6258 2.6052 2.6454
2.5838 2.5365 2.4767 2.3340 2.2795 2.2456
2.0279 1.9065 1.8601 1.8217 1.6727 1.4925
1.4621 1.3452 1.2578 1.1534 1.0614 1.0061
0.8223 0.7116 0.6750 0.5573 0.4876 0.4609
0.3966 0.3011 0.2262 0.2039 0.0709 -0.0005
-0.0237 -0.1040 -0.0237 -0.0460 -0.1388 -0.0978
-0.1138 -0.2040 -0.3217 -0.3503 -0.3914 -0.5020
-0.5868 -0.6091 -0.5698 -0.6394 -0.7501 -0.8340
-0.8590 -0.8527 -0.8982 -0.9232 -0.9455 -1.0151
-1.1115 -1.2320 -1.2436 -1.1918 -1.2739 -1.2918
-1.3837 -1.5015 -1.4774 -1.5060 -1.5184 -1.5399
-1.5113 -1.4872 -1.5256 -1.6229 -1.7630 -1.7996
-1.7585 -1.7175 -1.7478 -1.7353 -1.7282 -1.7344
-1.7059 -1.6952 -1.6541 -1.6104 -1.4748 -1.4105
-1.4551 -1.4480 -1.5203 -1.4819 -1.4239 -1.4319
-1.3811 -1.4221 -1.3463 -1.2695 -1.2695 -1.1999
-1.2642 -1.3392 -1.2874 -1.2437 -1.3124 -1.3044
-1.2294 -1.1777 -1.1857 -1.2776 -1.2865 -1.3142
-1.3124 -1.2946 -1.3615 -1.4293 -1.4641 -1.5212
-1.5355 -1.5498 -1.6256 -1.6569 -1.6926 -1.7069
-1.7515 -1.7774 -1.7952 -1.7791 -1.7390 -1.8264
-1.8113 -1.8131 -1.8907 -1.8952 -1.9193 -1.9059
-1.9826 -2.0781 -2.1227 -2.1548 -2.1397 -2.1665
-2.1254 -2.1040 -2.0879 -2.0424 -2.0656 -2.0728
-2.0746 -2.0612 -2.1094 -2.0897 -1.9764 -1.8979
-1.8363 -1.8943 -1.8649 -1.8113 -1.7926 -1.7426
-1.7676 -1.6588 -1.6097 -1.6275 -1.5660 -1.6275
-1.6454 -1.6472 -1.6097 -1.4598 -1.4419 -1.3821
-1.2278 -1.1680 -1.2233 -1.1448 -0.8307 -0.8271
-0.9494 -0.8914 -0.9128 -0.8387 -0.7495 -0.6710
-0.4916 -0.3729 -0.3479 -0.2873 -0.1980 -0.1534
-0.1159 -0.0660 -0.0472 -0.0490 0.0438 0.0447
0.1321 0.3855 0.4525 0.4284 0.3561 0.3418
0.4498 0.5417 0.5943 0.6041 0.6889 0.7246
0.7237 0.8692 0.8701 0.8326 0.9450 1.0530
1.1101 1.1485 1.2234 1.3207 1.3956 1.4483
1.6259 1.6928 1.6366 1.7651 1.9578 2.0925
2.0586 2.0515 2.1229 2.1345 2.2612 2.3236
2.2442 2.2621 2.3567 2.3799 2.3379 2.3397
2.3745 2.4361 2.4718 2.5208 2.5815 2.5904
2.7100 2.8323 2.8501 2.8528 2.8724 2.8742
2.8733 3.0009 2.9634 2.8492 2.9706 2.9964
2.9839 3.0401 3.0250 2.9759 2.9795 3.0036
2.9723 2.9143 2.8367 2.8483 2.7742 2.6796
2.6787 2.5859 2.5939 2.4994 2.3851 2.4021
2.3057 2.2780 2.1727 2.1076 2.1808 2.0674
1.9461 1.9068 1.8649 1.7248 1.6061 1.5998
1.4767 1.3562 1.3170 1.3169 1.3045 1.1661
1.0483 0.9770 0.9163 0.8583 0.8056 0.8181
0.8404 0.8600 0.7494 0.6709 0.7253 0.6548
0.5495 0.5638 0.5495 0.4442 0.4174 0.3318
0.2443 0.3594 0.3603 0.1738 0.1078 -0.0207
-0.1492 -0.0716 -0.0609 -0.0939 -0.2242 -0.2242
-0.1198 -0.1582 -0.0975 -0.1234 -0.2064 -0.1912
-0.2903 -0.4330 -0.4545 -0.4750 -0.4687 -0.4902
-0.5669 -0.5214 -0.4839 -0.4982 -0.5348 -0.5571
-0.5696 -0.5794 -0.5848 -0.6794 -0.6829 -0.6107
-0.6472 -0.6633 -0.5991 -0.5812 -0.5785 -0.6580
-0.7418 -0.7311 -0.7624 -0.7481 -0.7160 -0.6803
-0.6830 -0.6125 -0.5339 -0.5812 -0.5661 -0.5197
-0.4135 -0.3555 -0.2930 -0.1690 -0.1975 -0.2056
-0.1030 -0.0530 0.0532 0.1237 0.0630 0.0577
0.1183 0.2593 0.2950 0.2067 0.2718 0.3709
0.4253 0.3967 0.2771 0.3352 0.4431 0.4297
0.4128 0.4824 0.4743 0.3673 0.4494 0.3949
0.3110 0.3878 0.2923 0.2129 0.2584 0.2834
0.2013 0.1067 0.0612 0.0567 0.0237 -0.0129
0.0147 0.0014 -0.0325 -0.0959 -0.1700 -0.2164
-0.2655 -0.3565 -0.2601 -0.1682 -0.3324 -0.4341
-0.4636 -0.4654 -0.5243 -0.5466 -0.5823 -0.6813
-0.5760 -0.5377 -0.5171 -0.4466 -0.5386 -0.5448
-0.4752 -0.4734 -0.4716 -0.4449 -0.4600 -0.4895
-0.4877 -0.5073 -0.4449 -0.4253 -0.5216 -0.4360
-0.3905 -0.3914 -0.3021 -0.4038 -0.3717 -0.2843
-0.2977 -0.2896 -0.3503 -0.3334 -0.4030 -0.3628
-0.3369 -0.4699 -0.4681 -0.4137 -0.3236 -0.4592
-0.5716 -0.5012 -0.5948 -0.6582 -0.6787 -0.6948
-0.6671 -0.7510 -0.7751 -0.8117 -0.9072 -0.8724
-0.8421 -0.9206 -1.0214 -0.9848 -0.9848 -1.0741
-1.1160 -1.0669 -1.0803 -1.2053 -1.1937 -1.1865
-1.2213 -1.3454 -1.3980 -1.3570 -1.4150 -1.4150
-1.6104 -1.6291 -1.5560 -1.6872 -1.6211 -1.6702
-1.7345 -1.8166 -1.9727 -1.8817 -1.8576 -1.9959
-1.9584 -1.8282 -1.8719 -1.9094 -1.9049 -1.9817
-1.9888 -1.9228 -1.9156 -1.9745 -1.9201 -1.9263
-1.9665 -1.8773 -1.8755 -1.7925 -1.7568 -1.7970
-1.6881 -1.6676 -1.6426 -1.5748 -1.5400 -1.4204
-1.3026 -1.2562 -1.2018 -1.0849 -1.0010 -0.9876
-0.9011 -0.7199 -0.7039 -0.7547 -0.7164 -0.6798
-0.4710 -0.3728 -0.5379 -0.4844 -0.2425 -0.2283
-0.2631 -0.1016 -0.0489 0.0760 0.3357 0.3669
0.3874 0.3972 0.5400 0.7533 0.6935 0.7247
0.8345 0.8541 0.9103 1.0245 1.1022 1.1307
1.1102 1.0879 1.1950 1.3101 1.3449 1.3699
1.3681 1.3699 1.3734 1.3663 1.3886 1.3699
1.4064 1.5278 1.5822 1.5278 1.5769 1.6286
1.5189 1.5795 1.5822 1.5840 1.5412 1.3752
1.4448 1.4778 1.5171 1.5429 1.5599 1.5590
1.5287 1.5144 1.4064 1.4028 1.4189 1.4225
1.4305 1.4947 1.6232 1.6411 1.6259 1.6384
1.6312 1.5402 1.4563 1.4813 1.4992 1.5750
1.6375 1.5777 1.6214 1.6009 1.4938 1.5375
1.5589 1.6000 1.6803 1.6785 1.7231 1.7436
1.7329 1.7891 1.7829 1.7820 1.8373 1.7963
1.6972 1.6410 1.6758 1.7347 1.7284 1.6945
1.6696 1.6785 1.6160 1.5393 1.4821 1.4473
1.5446 1.5874 1.5517 1.5000 1.5044 1.4750
1.3652 1.4009 1.3242 1.2269 1.3117 1.3759
1.3857 1.3331 1.2519 1.1689 1.2073 1.2546
1.2046 1.1787 1.2269 1.2938 1.2670 1.3241
1.3429 1.2956 1.2911 1.2287 1.3215 1.4285
1.3857 1.3902 1.3741 1.3571 1.3732 1.3072
1.2938 1.3054 1.2135 1.1492 1.2215 1.2500
1.1929 1.1554 1.1269 1.1010 1.0662 1.0350
0.9386 0.9564 0.9207 0.7717 0.8226 0.8324
0.8931 0.8886 0.6753 0.6691 0.7333 0.7315
0.7315 0.6602 0.6316 0.6414 0.6182 0.6066
0.6352 0.6566 0.6200 0.5700 0.5200 0.5423
0.5245 0.4897 0.4692 0.3924 0.4236 0.3299
0.2809 0.3969 0.3763 0.2818 0.2184 0.2148
0.1461 0.1318 0.1247 0.0810 0.1122 0.1086
0.0774 -0.0413 -0.0672 -0.0458 -0.1127 -0.0716
-0.0297 0.0015 -0.0868 -0.2251 -0.2296 -0.3180
-0.3697 -0.3849 -0.4134 -0.3742 -0.4304 -0.4795
-0.4973 -0.6026 -0.6356 -0.6535 -0.7409 -0.8284
-0.9301 -0.9524 -0.9301 -0.9756 -1.1041 -1.1630
-1.1024 -1.1702 -1.2550 -1.2826 -1.3496 -1.4093
-1.4522 -1.5093 -1.5593 -1.5218 -1.5405 -1.6057
-1.6557 -1.6548 -1.6976 -1.7743 -1.7592 -1.8199
-1.8868 -1.9216 -1.8877 -1.8921 -1.9716 -1.9600
-1.9493 -1.9653 -2.0144 -1.9939 -1.9537 -2.0564
-2.0581 -2.0367 -2.0831 -2.0448 -2.0751 -2.0582
-2.0314 -2.0430 -1.9725 -1.9306 -1.8931 -1.9038
-1.8958 -1.8583 -1.9136 -1.8913 -1.8717 -1.9672
-1.8726 -1.7485 -1.8074 -1.8761 -1.8762 -1.7833
-1.7726 -1.8503 -1.8690 -1.8226 -1.7575 -1.7682
-1.7878 -1.7164 -1.6915 -1.7512 -1.7557 -1.7548
-1.7120 -1.5460 -1.4996 -1.5023 -1.4131 -1.3622
-1.2632 -1.2078 -1.2150 -1.1757 -1.1579 -1.0677
-1.0044 -0.9964 -0.9152 -0.8348 -0.7572 -0.6921
-0.6260 -0.5216 -0.4556 -0.4110 -0.3450 -0.3075
-0.2183 -0.1656 -0.1424 -0.0228 0.0352 0.1512
0.2591 0.1985 0.1958 0.2743 0.3858 0.4742
0.5010 0.5679 0.5643 0.6018 0.6482 0.6919
0.8097 0.7731 0.8739 0.9855 1.0096 1.1274
1.1229 1.1390 1.1952 1.1978 1.1934 1.2603
1.3486 1.3540 1.4504 1.5209 1.5128 1.5351
1.4816 1.5119 1.5360 1.5316 1.6190 1.5646
1.4878 1.5440 1.5699 1.5449 1.5949 1.5913
1.5619 1.6127 1.6306 1.6859 1.7055 1.6663
1.6850 1.7314 1.8180 1.8430 1.8492 1.9340
1.9331 1.9349 1.9893 2.0027 2.0178 1.9464
1.9384 1.9991 1.9982 2.1008 2.1419 2.1338
2.2034 2.1704 2.1642 2.2239 2.2204 2.2088
2.1874 2.1865 2.2025 2.1989 2.1847 2.2177
2.2480 2.2204 2.2650 2.3078 2.2980 2.3167
2.2864 2.2034 2.2498 2.3497 2.3827 2.4059
2.3899 2.3497 2.3113 2.2730 2.2578 2.3060
2.2614 2.1989 2.2382 2.1891 2.1766 2.1453
2.0624 2.0632 2.0391 2.0525 2.0293 1.9472
1.9089 1.8946 1.9142 1.8446 1.7687 1.7438
1.6813 1.6144 1.5635 1.5671 1.5144 1.4671
1.4493 1.3181 1.2128 1.1423 1.0763 1.0736
1.1182 1.0968 1.0084 1.0058 0.9665 0.8871
0.8728 0.8683 0.8282 0.8121 0.7960 0.7371
0.7077 0.6068 0.4891 0.3704 0.3017 0.3882
0.4774 0.5533 0.6015 0.5943 0.5283 0.4052
0.2758 0.2642 0.2401 0.2133 0.2865 0.3686
0.6059 0.6684 0.5622 0.5479 0.4721 0.3909
0.3150 0.4399 0.6523 0.7246 0.7656 0.7737
0.7317 0.7192 0.7451 0.7522 0.8638 0.9048
0.9414 1.1136 1.1734 1.1556 1.1029 1.1422
1.1680 1.1448 1.2278 1.2814 1.3822 1.5071
1.6205 1.6499 1.6526 1.6999 1.6213 1.6383
1.6972 1.7257 1.7472 1.7668 1.8908 1.9363
1.9649 1.9649 1.9452 2.1335 2.2049 2.0791
2.0514 2.0818 2.1683 2.1656 2.1853 2.2031
2.1585 2.2326 2.1719 2.0889 2.0826 2.0487
2.0148 2.0353 2.1317 2.1067 2.0764 2.1147
2.0255 1.9434 1.9264 1.9175 1.9229 1.8640
1.8604 1.8791 1.8104 1.7417 1.6712 1.5838
1.5365 1.4401 1.3517 1.3285 1.2804 1.2063
1.1037 1.0644 0.9805 0.8841 0.8690 0.8404
0.7860 0.6967 0.6601 0.6021 0.5147 0.3764
0.2559 0.2711 0.2523 0.1783 0.1220 0.0739
0.0382 0.0382 -0.0547 -0.1385 -0.1858 -0.2822
-0.3241 -0.3527 -0.3964 -0.5151 -0.5624 -0.5401
-0.5553 -0.5829 -0.6570 -0.6686 -0.7293 -0.8480
-0.8783 -0.9310 -1.0149 -1.0880 -1.1710 -1.1907
-1.3174 -1.3629 -1.5182 -1.9411 -2.0402 -2.1044
-2.1446 -2.3338 -2.5372 -2.3971 -2.4203 -2.4551
-2.5024 -2.7121 -2.9129 -2.9058 -2.8175 -2.8041
-2.8085 -2.9245 -2.9335 -2.8433 -2.9460 -2.9058
-2.8398 -3.0620 -3.0477 -2.9942 -3.0388 -2.9611
-3.1789 -3.2860 -3.1967 -3.2306 -3.1254 -3.0825
-3.0317 -2.9906 -3.0352 -3.0611 -3.1254 -3.2057
-3.2806 -3.1852 -3.2753 -3.4297 -3.3601 -3.4118
-3.4279 -3.4216 -3.4225 -3.3681 -3.4172 -3.3985
-3.4011 -3.4234 -3.3833 -3.4458 -3.4110 -3.4226
-3.5261 -3.5082 -3.4868 -3.5100 -3.5359 -3.5270
-3.5877 -3.5261 -3.4886 -3.5100 -3.4324 -3.5118
-3.4851 -3.4538 -3.4467 -3.3423 -3.4146 -3.3530
-3.2218 -3.2602 -3.2504 -3.2254 -3.1156 -3.0924
-3.1603 -2.9452 -2.7016 -2.7016 -2.6391 -2.4598
-2.3170 -2.1457 -2.0457 -1.8914 -1.8084 -1.8030
-1.6567 -1.5023 -1.4657 -1.4514 -1.2551 -1.0838
-0.9758 -0.9036 -0.8045 -0.6965 -0.6421 -0.5564
-0.4690 -0.3342 -0.2147 0.0022 0.0878 0.1601
0.3564 0.3511 0.4376 0.6357 0.7696 0.8124
0.9114 1.0275 1.1310 1.2139 1.1122 1.1979
1.3728 1.4406 1.5102 1.4736 1.5387 1.6191
1.5539 1.4326 1.2237 1.4370 1.7422 1.6342
1.7145 1.7475 1.7431 1.9251 1.9126 1.9073
1.9537 1.9313 1.9340 1.9081 1.9412 1.9251
1.9180 1.9251 1.8385 1.9947 1.8689 1.7172
1.9536 1.9072 1.8367 1.8233 1.8287 1.9483
1.9001 1.8849 1.9072 1.8733 1.9616 1.9393
1.9143 1.9081 1.9054 2.0054 1.9607 1.9652
1.9786 1.9268 1.8965 1.8519 1.8385 1.7671
1.6689 1.5993 1.5886 1.5047 1.3664 1.3985
1.3985 1.3075 1.2334 1.2120 1.2165 1.1513
1.0889 1.0077 0.9845 0.9416 0.8631 0.8800
0.8488 0.7569 0.7337 0.7854 0.7506 0.7033
0.6712 0.6498 0.6560 0.5445 0.5275 0.4892
0.3839 0.3776 0.3651 0.4445 0.3705 0.2670
0.3446 0.2750 0.2286 0.2197 0.1956 0.2821
0.3089 0.2518 0.1465 0.1545 0.2143 0.1563
0.1804 0.1741 0.1474 0.1929 0.0920 0.0715
0.1589 0.0617 0.0055 0.0563 0.1322 0.1670
0.1795 0.2366 0.1527 0.0697 0.1259 0.0572
-0.1918 -0.2658 -0.1918 -0.1168 -0.1766 -0.2846
-0.1499 -0.1240 -0.1151 -0.1052 -0.2632 -0.2793
-0.3051 -0.3221 -0.2944 -0.3863 -0.4033 -0.4211
-0.4399 -0.4229 -0.4943 -0.4801 -0.5577 -0.6987
-0.5024 -0.3623 -0.4711 -0.4604 -0.3435 -0.4239
-0.4765 -0.3748 -0.3168 -0.2588 -0.3605 -0.3320
-0.2864 -0.3436 -0.2374 -0.2936 -0.3320 -0.2285
-0.2499 -0.2499 -0.2240 -0.2865 -0.2151 -0.1089
-0.1428 -0.1464 -0.0821 -0.1187 -0.1865 -0.1169
-0.1437 -0.1901 -0.2106 -0.2267 -0.2258 -0.3320
-0.3142 -0.2740 -0.2731 -0.3079 -0.3320 -0.3186
-0.4132 -0.4043 -0.4400 -0.5292 -0.6024 -0.6060
-0.5855 -0.6863 -0.6577 -0.6604 -0.6810 -0.6702
-0.7104 -0.7443 -0.7693 -0.7800 -0.8416 -0.8675
-0.8487 -0.8657 -0.9424 -0.9442 -0.9746 -0.9808
-0.9317 -0.9719 -0.9023 -0.8755 -0.9050 -0.8961
-0.9130 -0.9380 -0.9844 -1.0031 -1.0745 -1.0835
-1.0638 -1.1076 -1.0692 -1.0719 -1.0781 -1.0451
-1.0728 -1.0674 -1.0255 -1.0085 -1.0451 -1.0460
-1.0183 -1.0344 -0.9782 -0.9211 -0.9372 -0.8925
-0.8684 -0.8881 -0.8444 -0.8212 -0.8051 -0.7676
-0.7069 -0.6588 -0.6561 -0.5811 -0.5499 -0.5820
-0.5811 -0.5615 -0.4598 -0.4232 -0.4116 -0.3411
-0.3224 -0.2644 -0.1930 -0.1519 -0.1082 -0.0484
0.0524 0.0943 0.1515 0.2710 0.3139 0.3727
0.4379 0.5227 0.6155 0.6360 0.7243 0.7368
0.7957 0.9724 1.0304 1.1178 1.2008 1.2535
1.3231 1.3070 1.3543 1.4667 1.5818 1.6684
1.6961 1.7880 1.8388 1.8799 2.0048 2.0414
2.0155 2.1279 2.1931 2.2306 2.3180 2.3234
2.3778 2.3573 2.4197 2.5750 2.6232 2.6580
2.6990 2.7347 2.7517 2.8641 2.9292 2.9328
2.9926 3.0247 2.9872 3.0149 3.0542 3.0559
3.0943 3.0479 3.0247 2.9783 2.8819 2.9078
2.9247 2.8310 2.8105 2.8507 2.8275 2.7811
2.7641 2.7686 2.7320 2.6936 2.6285 2.5803
2.5535 2.4812 2.4544 2.4071 2.3108 2.2599
2.2064 2.1769 2.1189 1.9940 1.9842 1.9395
1.8119 1.7753 1.7057 1.6843 1.6415 1.5121
1.5433 1.4800 1.3729 1.3532 1.2756 1.2631
1.1685 1.0391 1.0391 0.9508 0.8285 0.8669
0.7536 0.6492 0.6411 0.5073 0.4600 0.3493
0.2753 0.2681 0.1744 0.1093 0.1235 0.0736
-0.0505 -0.0772 -0.1460 -0.1754 -0.2548 -0.3351
-0.3619 -0.4387 -0.4280 -0.5243 -0.5725 -0.5725
-0.6154 -0.6055 -0.6778 -0.6519 -0.6769 -0.7465
-0.7189 -0.7947 -0.7831 -0.7894 -0.8902 -0.9652
-1.0000 -0.9384 -0.9616 -0.9804 -1.0045 -1.0277
-0.9456 -0.9018 -0.8831 -0.9063 -0.9018 -0.8670
-0.8349 -0.8117 -0.8510 -0.8671 -0.8126 -0.7573
-0.7957 -0.8117 -0.8153 -0.8260 -0.8117 -0.8278
-0.7832 -0.7636 -0.7636 -0.7082 -0.7823 -0.7538
-0.5655 -0.6119 -0.5923 -0.4638 -0.4423 -0.3799
-0.3174 -0.2175 -0.1871 -0.1095 0.0591 0.1082
0.2180 0.2867 0.2974 0.3661 0.4357 0.5615
0.6204 0.6106 0.6516 0.7007 0.7436 0.8248
0.9577 0.9666 0.9996 1.1531 1.1656 1.2450
1.3075 1.2807 1.3914 1.4592 1.5002 1.5663
1.6180 1.6591 1.6609 1.7394 1.8018 1.8313
1.8795 1.9339 2.0312 2.0249 2.0338 2.0856
2.0990 2.1320 2.1409 2.1900 2.2676 2.2765
2.2899 2.3328 2.3800 2.4104 2.3800 2.4300
2.4603 2.3970 2.4300 2.4505 2.3658 2.3104
2.2944 2.2774 2.3720 2.4559 2.4469 2.4398
2.4086 2.3443 2.2658 2.2685 2.2577 2.1507
2.1078 2.1212 2.0552 2.0097 1.9811 1.8999
1.8142 1.6634 1.6036 1.5483 1.4519 1.4082
1.3475 1.3207 1.1824 1.1066 1.0878 0.9888
0.9567 0.9031 0.8433 0.7407 0.6327 0.5480
0.4926 0.4623 0.3445 0.2347 0.1330 0.0848
-0.0196 -0.1249 -0.1758 -0.3096 -0.3525 -0.4096
-0.4756 -0.5764 -0.6309 -0.6273 -0.6568 -0.7460
-0.9013 -0.8201 -0.8513 -0.9272 -0.8941 -1.0226
-1.0717 -1.1163 -1.1931 -1.1815 -1.2020 -1.2502
-1.2698 -1.3332 -1.3662 -1.3921 -1.4492 -1.4117
-1.4501 -1.4751 -1.4876 -1.5617 -1.5572 -1.7160
-1.7830 -1.7303 -1.7910 -1.8285 -1.8963 -1.9418
-1.9454 -1.9374 -2.0239 -2.0123 -2.0239 -2.1078
-2.0560 -2.1212 -2.0837 -2.0561 -2.0766 -2.0453
-2.0944 -2.0703 -2.1132 -2.0980 -2.1605 -2.2899
-2.2087 -2.2765 -2.2827 -2.1792 -2.2230 -2.2176
-2.1783 -2.1123 -2.0855 -2.1489 -2.1543 -2.1186
-2.2051 -2.1819 -2.0588 -2.1391 -2.0695 -2.0481
-2.0633 -1.9776 -2.0365 -1.9660 -1.9214 -1.8357
-1.7447 -1.7759 -1.7590 -1.7956 -1.6938 -1.5386
-1.5314 -1.4841 -1.4208 -1.3458 -1.2593 -1.2129
-1.1558 -1.1620 -1.1317 -1.0433 -0.9773 -0.9425
-0.9318 -0.8702 -0.7721 -0.6891 -0.6641 -0.5249
-0.4535 -0.4946 -0.3812 -0.2974 -0.2394 -0.2090
-0.1992 -0.1742 -0.1492 -0.1144 -0.0341 0.0480
0.0372 0.0792 0.0890 0.1042 0.1416 0.1738
0.2487 0.2309 0.2666 0.2924 0.3344 0.3781
0.3281 0.3924 0.3959 0.4102 0.4620 0.4932
0.5191 0.4834 0.5235 0.5262 0.5994 0.6681
0.5815 0.6297 0.7591 0.7769 0.8001 0.8769
0.8840 0.9322 0.9688 0.8920 0.9152 0.9643
0.9741 1.0250 1.0741 1.0330 0.9554 0.9955
0.9777 0.9795 0.9964 0.9554 0.9991 0.9482
0.9812 1.0366 0.9455 0.9438 0.9000 0.8866
0.9652 0.9536 0.9402 0.9866 0.9812 0.9125
0.9259 0.9250 0.9009 0.9660 0.9607 0.9214
0.9607 0.9857 1.0115 1.0115 1.0133 1.0160
0.9366 0.9901 0.9856 0.9901 1.0981 1.0231
1.0374 1.0276 0.9660 0.9990 0.9589 0.8875
0.8625 0.8072 0.7349 0.7563 0.7010 0.6331
0.6911 0.6733 0.5252 0.5198 0.5600 0.4502
0.3547 0.3172 0.3270 0.2994 0.3618 0.3538
0.2155 0.2690 0.2521 0.1512 0.1432 0.0798
0.0147 0.0254 -0.0522 -0.1147 -0.0897 -0.1450
-0.1361 -0.1352 -0.2628 -0.2736 -0.1879 -0.2370
-0.3280 -0.2825 -0.2575 -0.2798 -0.2959 -0.4003
-0.3780 -0.3289 -0.4137 -0.4735 -0.5208 -0.4851
-0.5654 -0.6109 -0.5083 -0.5261 -0.4574 -0.4387
-0.5386 -0.5832 -0.5895 -0.5145 -0.5404 -0.5681
-0.5181 -0.5770 -0.5717 -0.5663 -0.5360 -0.4923
-0.4789 -0.3968 -0.4084 -0.3745 -0.3075 -0.3611
-0.3709 -0.2808 -0.2826 -0.3183 -0.3406 -0.3638
-0.3245 -0.3085 -0.2237 -0.2157 -0.2326 -0.1255
-0.1032 -0.0961 -0.1068 -0.0872 -0.0613 -0.0693
-0.0542 -0.0363 -0.0310 -0.0997 -0.1006 -0.0961
-0.1273 -0.1033 -0.0926 -0.1166 -0.0970 -0.0238
-0.0337 -0.0587 -0.0640 -0.1211 -0.1006 -0.0756
-0.1051 -0.0801 -0.0944 -0.0837 -0.1104 -0.1899
-0.1702 -0.0979 -0.1149 -0.1265 -0.1319 -0.2184
-0.2363 -0.2889 -0.2746 -0.3050 -0.3460 -0.2782
-0.3389 -0.3907 -0.4487 -0.4888 -0.5156 -0.5718
-0.5486 -0.5665 -0.5995 -0.6084 -0.6298 -0.6307
-0.6709 -0.7369 -0.6834 -0.6405 -0.6914 -0.6646
-0.6745 -0.6031 -0.5781 -0.7057 -0.6013 -0.5558
-0.6040 -0.5710 -0.6031 -0.5665 -0.5460 -0.5326
-0.4246 -0.4264 -0.4237 -0.3836 -0.4050 -0.3408
-0.2194 -0.2292 -0.2819 -0.1641 -0.0633 -0.0383
0.0385 0.0822 0.1589 0.2473 0.2758 0.3624
0.4141 0.4320 0.5016 0.5623 0.6595 0.7479
0.7960 0.8300 0.9183 1.0182 1.0093 1.0593
1.1110 1.1137 1.1592 1.2360 1.3243 1.3600
1.4207 1.4581 1.4492 1.5420 1.6696 1.7214
1.7473 1.7803 1.8267 1.9204 2.0230 2.0783
2.0712 2.1033 2.1791 2.2220 2.3308 2.4450
2.4665 2.5477 2.5834 2.5923 2.5887 2.4165
2.2675 2.1996 2.3237 2.4459 2.4557 2.4129
2.4138 2.5753 2.5574 2.5708 2.6253 2.6583
2.6833 2.6047 2.6244 2.6422 2.6092 2.5878
2.5048 2.4557 2.5423 2.5057 2.4637 2.5208
2.4762 2.4441 2.4423 2.4128 2.4075 2.4762
2.5306 2.5208 2.4976 2.5627 2.5913 2.5172
2.5699 2.5404 2.4797 2.4967 2.4494 2.4191
2.4271 2.4878 2.4708 2.5127 2.5279 2.4324
2.4485 2.3887 2.3548 2.3548 2.2745 2.2218
2.1647 2.0951 2.0210 1.9969 1.9728 1.9577
1.9389 1.9077 1.8791 1.7872 1.7390 1.6908
1.6757 1.6578 1.6096 1.5846 1.5195 1.5195
1.5150 1.4856 1.4347 1.3303 1.3009 1.2768
1.2259 1.1866 1.0448 0.9948 0.9555 0.8020
0.7833 0.7048 0.6914 0.6325 0.4781 0.4299
0.3353 0.3148 0.1390 0.0274 -0.0216 -0.1243
-0.1787 -0.3518 -0.2867 -0.2902 -0.3447 -0.3384
-0.3982 -0.4152 -0.5455 -0.4973 -0.5098 -0.6044
-0.5803 -0.6999 -0.7016 -0.7150 -0.7552 -0.6900
-0.7945 -0.7864 -0.9185 -1.1300 -0.9524 -1.1443
-1.2853 -1.1023 -1.4155 -1.3674 -1.1166 -1.3781
-1.4745 -1.4994 -1.4878 -1.4629 -1.5209 -1.4075
-1.4174 -1.4388 -1.3014 -1.2068 -1.1059 -1.2032
-1.3451 -1.2273 -1.2478 -1.2568 -1.1283 -1.1845
-1.2211 -1.1845 -1.0560 -1.0364 -1.0676 -0.9623
-1.0515 -0.9864 -0.9132 -1.0506 -1.0310 -1.0150
-0.9516 -0.8454 -0.7598 -0.6893 -0.7383 -0.8026
-0.8892 -0.7767 -0.5831 -0.5563 -0.5911 -0.5822
-0.5153 -0.5608 -0.4546 -0.4528 -0.3520 -0.1360
-0.1021 0.0638 -0.1566 -0.0673 0.0897 0.0522
0.3423 0.2111 0.2120 0.2851 0.4038 0.6430
0.5100 0.5305 0.5957 0.4547 0.4948 0.6822
0.6528 0.6135 0.6224 0.6135 0.6340 0.6626
0.6527 0.6652 0.7018 0.6331 0.7286 0.5385
0.4296 0.5697 0.4707 0.4493 0.4359 0.5099
0.3716 0.4002 0.4136 0.2413 0.3092 0.1878
0.2565 0.2574 0.2030 0.3002 0.2253 0.1798
0.0771 -0.1067 -0.1460 0.0200 0.0164 -0.1629
-0.3102 -0.3334 -0.2334 -0.1852 -0.0933 -0.0933
-0.0889 -0.0978 -0.1585 -0.0666 -0.0693 -0.1567
-0.1960 -0.2058 -0.2067 -0.2656 -0.3191 -0.3450
-0.3816 -0.2718 -0.2281 -0.3745 -0.3861 -0.3522
-0.4128 -0.3959 -0.4280 -0.4289 -0.3325 -0.4646
-0.4932 -0.6163 -0.8001 -0.6377 -0.7279 -0.9501
-0.9179 -0.9501 -1.0161 -1.0554 -1.1366 -1.1107
-1.2865 -1.4132 -1.2570 -1.3302 -1.3383 -1.2490
-1.3035 -1.3588 -1.4052 -1.3963 -1.4748 -1.6800
-1.8228 -1.8103 -1.7086 -1.6684 -1.6479 -1.6997
-1.8318 -1.7434 -1.5739 -1.5997 -1.6792 -1.6560
-1.5596 -1.5471 -1.5694 -1.5400 -1.5275 -1.5489
-1.5114 -1.4561 -1.6176 -1.6524 -1.5471 -1.4650
-1.3678 -1.4347 -1.4374 -1.4561 -1.4472 -1.5177
-1.5239 -1.3142 -1.3731 -1.4053 -1.3946 -1.4187
-1.4026 -1.3865 -1.2937 -1.2902 -1.2902 -1.3080
-1.3874 -1.2259 -1.1545 -1.2420 -1.1617 -1.2375
-1.2750 -1.1537 -1.0850 -1.0555 -1.1171 -1.1626
-1.0939 -1.0760 -1.1858 -1.1805 -1.1367 -1.1457
-1.1251 -1.1510 -1.2099 -1.3027 -1.4482 -1.4785
-1.3090 -1.2028 -1.1921 -1.1956 -1.2447 -1.2358
-1.2697 -1.3429 -1.3572 -1.3732 -1.2822 -1.2769
-1.2840 -1.1421 -1.2706 -1.2947 -1.2287 -1.3608
-1.2599 -1.2037 -1.2814 -1.2635 -1.2519 -1.2608
-1.3233 -1.3492 -1.3528 -1.3233 -1.3590 -1.4188
-1.2412 -1.1912 -1.2528 -1.2689 -1.2421 -1.1948
-1.2698 -1.2519 -1.2359 -1.2662 -1.2751 -1.2966
-1.3296 -1.3501 -1.3912 -1.5491 -1.5063 -1.3100
-1.2341 -1.2538 -1.2564 -1.2912 -1.2912 -1.2457
-1.2948 -1.1993 -1.3849 -1.5152 -1.4046 -1.4974
-1.4528 -1.4938 -1.4813 -1.5126 -1.5956 -1.5152
-1.6678 -1.7615 -1.7107 -1.7615 -1.7517 -1.6919
-1.6464 -1.4501 -1.4724 -1.6224 -1.6108 -1.5786
-1.4296 -1.5251 -1.5599 -1.4430 -1.4635 -1.4207
-1.4493 -1.6019 -1.7821 -1.7089 -1.6277 -1.6268
-1.6224 -1.7553 -1.7928 -1.7696 -1.8116 -1.8080
-1.6786 -1.7331 -1.8098 -1.7045 -1.7723 -1.8312
-1.7054 -1.6296 -1.7143 -1.7536 -1.7241 -1.7991
-1.7795 -1.6858 -1.5769 -1.4270 -1.5091 -1.5921
-1.5082 -1.4770 -1.2816 -1.0683 -1.1557 -1.2271
-1.2084 -1.0442 -0.8684 -0.9809 -0.9505 -0.9514
-1.0291 -0.7828 -0.7087 -0.7658 -0.6177 -0.5499
-0.5383 -0.5347 -0.7176 -0.8185 -0.8194 -0.8372
-0.6793 -0.7373 -0.7685 -0.5142 -0.4678 -0.4330
-0.3491 -0.3215 -0.2536 -0.1314 -0.0859 -0.0154
-0.0225 -0.1046 -0.0225 -0.0011 0.1229 0.1506
0.1889 0.2791 0.1818 0.2639 0.4200 0.5610
0.6039 0.6538 0.7797 0.8287 0.9305 1.0590
1.1482 1.2535 1.3043 1.3588 1.4391 1.4427
1.4783 1.5292 1.5515 1.5176 1.6327 1.7469
1.7933 1.9504 1.8504 1.7701 1.7862 1.8906
2.1654 2.1690 2.0940 2.0914 2.0289 2.0762
2.1377 2.1458 2.2332 2.2082 2.2297 2.4162
2.4572 2.4652 2.4804 2.4804 2.5321 2.5589
2.5500 2.5420 2.5544 2.6392 2.6865 2.6017
2.6249 2.6936 2.7579 2.7632 2.6776 2.6597
2.7017 2.8177 2.8061 2.7409 2.7329 2.6758
2.6552 2.6633 2.6169 2.5999 2.5874 2.5954
2.6775 2.6463 2.5874 2.5847 2.5865 2.5562
2.5151 2.5544 2.5481 2.4839 2.4660 2.4196
2.3759 2.3518 2.3161 2.2679 2.1983 2.1947
2.1805 2.2072 2.3018 2.2563 2.1537 2.0698
2.0109 1.9404 1.8994 1.9520 1.8761 1.8235
1.8280 1.7762 1.7450 1.6673 1.6379 1.6263
1.5906 1.5763 1.5460 1.5085 1.4487 1.3960
1.4058 1.4192 1.3559 1.2845 1.2577 1.2220
1.2461 1.2497 1.1881 1.1595 1.0998 1.0569
1.0355 1.0400 1.0292 0.9873 1.0043 1.0283
1.0373 1.0069 0.9659 0.9337 0.9097 0.9213
0.8963 0.8079 0.7535 0.6848 0.6223 0.5661
0.4706 0.4599 0.4215 0.3590 0.3082 0.2011
0.1797 0.1556 0.1208 0.1359 0.0699 0.0066
-0.0532 -0.1318 -0.1728 -0.1960 -0.2478 -0.3326
-0.3388 -0.3834 -0.5137 -0.5744 -0.5771 -0.6601
-0.7279 -0.7431 -0.8207 -0.8448 -0.8341 -0.8305
-0.8796 -0.9456 -0.9233 -0.9064 -0.9305 -0.9572
-0.9349 -0.9555 -0.9680 -0.9153 -0.9100 -0.9225
-0.9394 -0.9555 -0.9349 -0.8912 -0.9234 -0.9358
-0.8877 -0.8948 -0.9216 -0.9394 -0.9385 -0.9385
-0.9287 -0.9216 -0.8779 -0.8645 -0.8948 -0.8618
-0.8449 -0.8011 -0.7315 -0.6753 -0.6477 -0.6298
-0.5879 -0.5459 -0.4737 -0.4451 -0.4183 -0.3737
-0.3282 -0.2452 -0.2417 -0.1908 -0.1614 -0.1979
-0.0498 0.0341 0.0724 0.1688 0.1608 0.2107
0.2634 0.3134 0.4151 0.4508 0.5186 0.6096
0.6747 0.6489 0.6132 0.6935 0.7899 0.7675
0.7372 0.8425 0.8594 0.8791 0.9103 0.9076
0.9933 1.0093 1.0236 1.0513 1.0566 1.0504
1.0870 1.1111 1.0959 1.1557 1.1646 1.1610
1.1780 1.1735 1.1914 1.1387 1.0513 1.0727
1.0700 1.0450 1.0575 1.0236 1.0370 1.0093
0.9076 0.8924 0.8603 0.7808 0.7264 0.6755
0.6631 0.5926 0.4935 0.4837 0.4284 0.3034
0.2686 0.2534 0.1312 0.0045 -0.0767 -0.1080
-0.1285 -0.2490 -0.3373 -0.4087 -0.5238 -0.5461
-0.6684 -0.7656 -0.7933 -0.9682 -1.0084 -1.0789
-1.2404 -1.2993 -1.3796 -1.4242 -1.5019 -1.5777
-1.6803 -1.7464 -1.7053 -1.8115 -1.9070 -1.9275
-1.9900 -2.0560 -2.0739 -2.1015 -2.2140 -2.3050
-2.3791 -2.3889 -2.3603 -2.3844 -2.3862 -2.3844
-2.3693 -2.3719 -2.4148 -2.4085 -2.3835 -2.3782
-2.3309 -2.2827 -2.2649 -2.2720 -2.2533 -2.1890
-2.1881 -2.1623 -2.0623 -2.0186 -1.9865 -1.9169
-1.9267 -1.9249 -1.8660 -1.8785 -1.8446 -1.7661
-1.7233 -1.6813 -1.5983 -1.4939 -1.4011 -1.3485
-1.3494 -1.2423 -1.1664 -1.0951 -0.9460 -0.9157
-0.8497 -0.7783 -0.7203 -0.6070 -0.5284 -0.4731
-0.4089 -0.3080 -0.2572 -0.1974 -0.1394 -0.0894
0.0061 0.0266 0.0346 0.1087 0.1881 0.2622
0.3353 0.3407 0.4379 0.5950 0.6173 0.6708
0.7520 0.8324 0.8966 0.9305 1.0162 1.0528
1.0724 1.1161 1.1518 1.2375 1.2562 1.2473
1.3088 1.3436 1.3338 1.3347 1.4338 1.4918
1.4159 1.3606 1.3775 1.4061 1.4123 1.3954
1.3775 1.3909 1.3998 1.4400 1.4400 1.3739
1.3811 1.3864 1.3980 1.3936 1.3150 1.3017
1.3284 1.3257 1.3025 1.2668 1.2579 1.2213
1.2338 1.2401 1.2053 1.2329 1.2383 1.2882
1.2838 1.2213 1.2436 1.1785 1.1240 1.1392
1.1026 1.1240 1.1633 1.1205 1.0294 1.0384
1.1044 1.0803 1.0660 1.1151 1.1749 1.1776
1.2070 1.2248 1.2480 1.3310 1.2891 1.2837
1.3248 1.3239 1.3185 1.3185 1.3587 1.3533
1.3560 1.4033 1.4149 1.3265 1.3230 1.3596
1.3328 1.3792 1.3819 1.3854 1.3685 1.3729
1.4738 1.4532 1.4506 1.4996 1.4505 1.4595
1.4952 1.4684 1.4737 1.4764 1.4425 1.4211
1.4077 1.3809 1.3881 1.3988 1.3488 1.3167
1.2756 1.2310 1.2337 1.2372 1.2033 1.1516
1.1400 1.1453 1.1373 1.1052 1.0998 1.0793
1.0106 1.0195 1.0293 1.0177 1.0132 0.9195
0.8553 0.8124 0.7643 0.7625 0.7223 0.6884
0.6652 0.6197 0.5394 0.4778 0.4510 0.3805
0.3707 0.3430 0.2708 0.2342 0.1583 0.1083
0.0682 0.0762 0.0441 -0.0434 -0.0416 -0.1049
-0.1237 -0.1130 -0.1942 -0.2138 -0.2218 -0.2459
-0.3370 -0.3744 -0.3156 -0.3450 -0.3548 -0.3423
-0.3584 -0.3727 -0.3861 -0.3691 -0.3200 -0.3147
-0.3183 -0.2781 -0.3031 -0.2933 -0.2317 -0.2290
-0.2112 -0.2219 -0.1684 -0.1005 -0.1184 -0.1130
-0.1693 -0.1113 -0.0158 -0.0122 0.0735 0.1190
0.1270 0.1609 0.2100 0.2341 0.2635 0.3162
0.3465 0.3697 0.3759 0.4045 0.3822 0.3840
0.5133 0.5571 0.5294 0.5499 0.5044 0.5017
0.5696 0.5892 0.6552 0.6864 0.7114 0.7319
0.7400 0.7810 0.7864 0.8247 0.8515 0.8756
0.8952 0.9247 0.9764 0.9987 1.0273 1.0541
1.0826 1.0755 1.0969 1.0808 1.0451 1.1076
1.1299 1.1611 1.1397 1.1094 1.1593 1.1915
1.2200 1.2191 1.2271 1.2280 1.2289 1.2646
1.2735 1.3190 1.3262 1.2459 1.2682 1.2816
1.2762 1.3476 1.3913 1.3958 1.3610 1.3610
1.3583 1.3333 1.3404 1.3119 1.2744 1.2824
1.3110 1.3074 1.2690 1.2253 1.1905 1.1709
1.1762 1.2190 1.1700 1.1227 1.1610 1.1191
1.1137 1.1182 1.0620 1.0254 1.0058 0.9942
0.9335 0.8987 0.8005 0.7291 0.7371 0.6542
0.6283 0.5712 0.5158 0.5453 0.5042 0.4096
0.3784 0.3097 0.1803 0.2187 0.2490 0.1303
0.0661 0.0580 -0.0205 -0.0946 -0.1981 -0.2570
-0.2579 -0.3462 -0.3774 -0.4578 -0.5300 -0.5060
-0.6023 -0.7067 -0.7228 -0.7639 -0.8308 -0.8727
-0.9218 -0.9611 -0.9994 -1.0610 -1.1030 -1.1610
-1.2074 -1.2449 -1.2886 -1.3225 -1.3769 -1.3957
-1.4180 -1.4430 -1.4572 -1.5054 -1.5099 -1.4974
-1.5572 -1.5670 -1.5162 -1.5295 -1.5858 -1.6286
-1.6072 -1.5992 -1.6072 -1.5947 -1.6063 -1.6188
-1.6304 -1.6242 -1.5751 -1.4992 -1.4635 -1.4716
-1.4439 -1.3770 -1.3359 -1.3136 -1.2770 -1.2182
-1.1798 -1.1575 -1.1263 -1.0861 -1.0290 -0.9763
-0.8925 -0.8702 -0.8291 -0.7890 -0.8104 -0.6462
-0.5570 -0.5516 -0.4302 -0.3687 -0.2893 -0.2803
-0.2652 -0.1313 -0.0689 0.0052 0.0579 0.1292
0.1819 0.1881 0.3711 0.4317 0.3978 0.5067
0.6040 0.6566 0.5932 0.6155 0.7003 0.6521
0.7583 0.8734 0.8565 0.9011 0.9502 0.9618
1.0037 1.0537 1.0840 1.1349 1.1554 1.1750
1.2375 1.3017 1.3240 1.3437 1.3570 1.3785
1.4356 1.4739 1.5569 1.5748 1.6140 1.6274
1.5757 1.6283 1.6613 1.6560 1.6212 1.6524
1.6872 1.6854 1.6925 1.6863 1.6836 1.6658
1.6711 1.6872 1.6729 1.6443 1.6354 1.5935
1.5569 1.5533 1.5203 1.4998 1.5274 1.4989
1.4641 1.4739 1.4480 1.4337 1.3918 1.3579
1.3561 1.3445 1.3222 1.2579 1.2213 1.2115
1.1606 1.1455 1.1231 1.0892 1.0446 0.9982
1.0054 0.9759 0.9536 0.9215 0.9241 0.8840
0.8358 0.8394 0.7894 0.8197 0.7626 0.7421
0.7822 0.7216 0.6975 0.6689 0.6653 0.6091
0.6038 0.6582 0.6626 0.6403 0.5948 0.6153
0.5779 0.5556 0.5547 0.5359 0.5716 0.5350
0.5056 0.5145 0.5038 0.4806 0.4850 0.4725
0.4208 0.4252 0.3779 0.3503 0.3788 0.3440
0.3128 0.3083 0.3039 0.2798 0.2441 0.2316
0.2227 0.1771 0.1620 0.1620 0.1200 0.1236
0.1164 0.0647 0.0861 0.1075 0.1013 0.0727
0.0227 0.0031 -0.0353 -0.1388 -0.2191 -0.1245
-0.0951 -0.1406 -0.1272 -0.1531 -0.1566 -0.1620
-0.2022 -0.2486 -0.2182 -0.2602 -0.3342 -0.3369
-0.4217 -0.3824 -0.3432 -0.3735 -0.3289 -0.3575
-0.3931 -0.3459 -0.2887 -0.3352 -0.3798 -0.3477
-0.3316 -0.3191 -0.3146 -0.3370 -0.3851 -0.4021
-0.3468 -0.3039 -0.2834 -0.2540 -0.2584 -0.2326
-0.2120 -0.2968 -0.2790 -0.2344 -0.2513 -0.1674
-0.1532 -0.1407 -0.1050 -0.1282 -0.1077 -0.1541
-0.1817 -0.1237 -0.0720 -0.0327 -0.0354 -0.0747
-0.0773 -0.0300 0.0056 0.0360 0.0181 0.0351
0.0404 0.0190 0.0940 0.1091 0.1377 0.1618
0.1466 0.1841 0.2439 0.2787 0.1823 0.1091
0.1002 0.1769 0.2608 0.2242 0.2465 0.2207
0.2430 0.3420 0.3126 0.3277 0.3581 0.4036
0.3875 0.3411 0.3991 0.3465 0.3527 0.3536
0.3143 0.3447 0.3224 0.3375 0.3357 0.3821
0.4169 0.4375 0.5204 0.4865 0.4803 0.5427
0.5481 0.5534 0.5954 0.6561 0.6819 0.6641
0.7096 0.7837 0.7622 0.7605 0.8229 0.8318
0.8488 0.9220 0.9282 0.9612 0.9933 0.9710
1.0451 1.0799 1.0781 1.0924 1.0861 1.1200
1.0995 1.0299 1.0781 1.1227 1.0834 1.0754
1.1218 1.1022 1.0602 1.0558 1.0076 1.0540
1.0656 1.1039 1.1477 1.1084 1.1780 1.1370
1.0870 1.1396 1.1967 1.2226 1.2208 1.2021
1.1619 1.1592 1.1691 1.2083 1.2511 1.2128
1.1798 1.2440 1.1708 1.1003 1.1057 1.0611
1.1128 1.0878 0.9888 0.9593 0.9192 0.8853
0.9120 0.8951 0.8513 0.8710 0.8692 0.8290
0.8058 0.8246 0.7933 0.6952 0.6648 0.7094
0.6746 0.6862 0.6809 0.5292 0.5006 0.4417
0.4042 0.4685 0.4694 0.4328 0.3605 0.4042
0.3989 0.3319 0.3542 0.3400 0.2748 0.2079
0.2311 0.2311 0.1963 0.1829 0.1775 0.1204
-0.0277 -0.0045 -0.0375 -0.0652 -0.0125 -0.1625
-0.2142 -0.1785 -0.1651 -0.1839 -0.3160 -0.3356
-0.2597 -0.3133 -0.3436 -0.3552 -0.4918 -0.5292
-0.4222 -0.3722 -0.3900 -0.4846 -0.5462 -0.5382
-0.5926 -0.6328 -0.6783 -0.6988 -0.7336 -0.8032
-0.8853 -0.9380 -0.9656 -1.0085 -0.9174 -0.8710
-1.0031 -1.0932 -1.0031 -0.9407 -1.0112 -1.0013
-1.0138 -1.1566 -1.2003 -1.1513 -1.1067 -1.1004
-1.1638 -1.2012 -1.2120 -1.2307 -1.2200 -1.2682
-1.3440 -1.3075 -1.3396 -1.3512 -1.3244 -1.3387
-1.2923 -1.3173 -1.3628 -1.3905 -1.2869 -1.2441
-1.3137 -1.2486 -1.2887 -1.2950 -1.2254 -1.1879
-1.1201 -1.2138 -1.2343 -1.1888 -1.2477 -1.1897
-1.2129 -1.2682 -1.2147 -1.2120 -1.2138 -1.2040
-1.1781 -1.1219 -1.1103 -1.1398 -1.1291 -1.0532
-1.0363 -1.0407 -0.9756 -1.0068 -0.9783 -0.9729
-1.0425 -0.9943 -0.9783 -0.9113 -0.8801 -0.8533
-0.8114 -0.8310 -0.8052 -0.9167 -0.9587 -0.8257
-0.7954 -0.7525 -0.7035 -0.7383 -0.7249 -0.7400
-0.7061 -0.6223 -0.6705 -0.6901 -0.6651 -0.6437
-0.6125 -0.5884 -0.5643 -0.5357 -0.5286 -0.5625
-0.5411 -0.5215 -0.5304 -0.5125 -0.4635 -0.4295
-0.4046 -0.3707 -0.3546 -0.2993 -0.2707 -0.2796
-0.2841 -0.2502 -0.2029 -0.2065 -0.1869 -0.1431
-0.1065 -0.0771 -0.0628 -0.0325 -0.0459 -0.0039
0.0514 0.0460 0.1049 0.1121 0.1736 0.2343
0.2084 0.2298 0.2664 0.2843 0.2637 0.3200
0.3672 0.3878 0.3815 0.3699 0.4145 0.3931
0.4377 0.4770 0.4315 0.4029 0.4083 0.4431
0.4565 0.5109 0.4199 0.3351 0.5171 0.5823
0.5475 0.5930 0.5707 0.4386 0.4216 0.5046
0.4475 0.4270 0.4707 0.3226 0.2173 0.4172
0.5233 0.4885 0.5278 0.4903 0.5189 0.5769
0.5787 0.5992 0.5679 0.5920 0.5876 0.6001
0.6536 0.6465 0.7161 0.7393 0.7196 0.6705
0.6304 0.7241 0.8231 0.8490 0.8320 0.8945
0.8758 0.8231 0.8472 0.7589 0.8204 0.8704
0.8615 0.9543 0.9177 0.9507 0.9793 0.9998
1.0381 0.9650 1.0515 1.0926 1.0578 1.1220
1.1095 1.0926 1.1390 1.2309 1.2844 1.2898
1.3442 1.3478 1.3335 1.3817 1.3379 1.3745
1.5137 1.4468 1.4557 1.5682 1.5191 1.5387
1.5780 1.6154 1.6681 1.5922 1.6449 1.7065
1.6297 1.6252 1.6449 1.6547 1.6699 1.6913
1.6859 1.6779 1.7225 1.7278 1.6788 1.6600
1.6663 1.6841 1.7153 1.6975 1.6582 1.6261
1.6341 1.6823 1.6886 1.7109 1.7430 1.7733
1.7858 1.7260 1.7242 1.6716 1.6020 1.6198
1.6020 1.6091 1.5904 1.5449 1.5083 1.4904
1.5083 1.4637 1.4431 1.3949 1.3467 1.3494
1.2539 1.2611 1.1817 1.0942 1.2004 1.1174
1.0639 1.0166 0.9425 0.9059 0.8720 0.9246
0.8702 0.8747 0.8577 0.8390 0.8550 0.7801
0.8077 0.8095 0.7319 0.7274 0.7702 0.7274
0.6971 0.6524 0.5498 0.5677 0.5891 0.5855
0.5659 0.5204 0.5043 0.4659 0.4418 0.4365
0.4436 0.4222 0.3704 0.3258 0.2892 0.3080
0.3026 0.3320 0.3606 0.2901 0.2517 0.2517
0.2794 0.2624 0.2142 0.2428 0.2713 0.2544
0.1794 0.1518 0.1759 0.1232 0.1526 0.2240
0.1866 0.1509 0.1196 0.1562 0.1857 0.0973
0.0982 0.1276 0.1080 0.0964 0.1321 0.1696
0.1276 0.1062 0.1169 0.1401 0.0884 0.0669
0.0919 0.0589 0.0027 0.0080 0.0366 -0.3177
-0.3908 -0.0384 -0.0241 -0.0250 -0.0170 -0.0910
-0.0375 0.0107 -0.0063 0.0044 0.0473 0.0375
0.0125 0.0116 -0.0571 -0.1053 -0.0777 -0.0571
-0.0920 -0.0928 -0.0250 -0.0866 -0.0607 -0.0429
-0.1250 -0.0839 -0.1125 -0.0920 -0.0964 -0.1866
-0.2000 -0.2437 -0.2597 -0.2437 -0.2687 -0.2830
-0.3633 -0.4231 -0.2749 -0.2482 -0.3267 -0.3187
-0.3392 -0.3338 -0.3490 -0.3811 -0.4133 -0.4445
-0.4882 -0.4739 -0.4864 -0.6729 -0.6551 -0.5445
-0.6649 -0.7417 -0.7479 -0.8746 -0.8568 -0.7497
-0.8443 -0.7167 -0.5704 -0.6507 -0.6944 -0.7872
-0.7631 -0.6685 -0.5864 -0.5713 -0.6837 -0.6819
-0.6186 -0.6346 -0.6685 -0.5623 -0.4972 -0.5945
-0.5873 -0.4963 -0.4588 -0.4704 -0.4508 -0.4999
-0.4945 -0.4125 -0.4696 -0.4107 -0.4196 -0.4678
-0.3830 -0.4187 -0.4151 -0.3857 -0.4187 -0.4294
-0.3804 -0.3322 -0.3259 -0.2724 -0.2608 -0.2715
-0.2260 -0.2028 -0.2224 -0.2019 -0.1662 -0.2171
-0.2394 -0.1457 -0.1011 -0.0556 0.0372 0.0765
0.1175 0.1273 0.2121 0.2416 0.2014 0.3040
0.3620 0.3772 0.3941 0.4298 0.4557 0.4102
0.4843 0.4941 0.4325 0.4780 0.5012 0.6440
0.6556 0.5690 0.5967 0.4682 0.5057 0.7189
0.7796 0.7073 0.6993 0.7519 0.7591 0.8804
0.9581 0.9411 0.9456 0.9527 0.9920 0.9652
0.9313 0.9420 0.9116 0.9866 1.0232 0.9473
0.9241 0.9580 1.0366 1.0312 1.0928 1.0151
0.9625 1.0544 0.9205 1.0026 1.0142 1.0071
1.1748 1.1891 1.2516 1.2177 1.1802 1.2043
1.2221 1.2578 1.2266 1.2435 1.2498 1.1837
1.1391 1.1141 1.1364 1.2043 1.2587 1.2988
1.3060 1.2578 1.1882 1.1962 1.1891 1.1864
1.2266 1.1793 1.1275 1.0954 1.0972 1.1284
1.0900 1.1471 1.1989 1.1596 1.1141 1.0195
1.0721 1.0873 1.0481 0.9490 0.8651 0.8910
0.7884 0.8714 0.9918 0.8767 0.7321 0.7464
0.8124 0.8696 0.8294 0.7268 0.7643 0.7660
0.7883 0.7223 0.7196 0.7348 0.6554 0.6723
0.5840 0.6598 0.7044 0.5438 0.5518 0.4992
0.4394 0.5161 0.4983 0.4965 0.4278 0.3528
0.3921 0.3350 0.3162 0.3136 0.2743 0.2502
0.1699 0.1271 0.1654 0.1324 0.0458 -0.0273
-0.0363 0.0048 -0.0648 -0.1032 -0.0836 -0.1059
-0.0559 -0.0532 -0.1282 -0.0755 -0.1880 -0.3058
-0.1487 -0.1782 -0.2728 -0.2719 -0.2870 -0.2674
-0.2665 -0.2719 -0.2728 -0.2728 -0.2308 -0.2478
-0.3013 -0.3085 -0.3460 -0.3174 -0.2746 -0.3299
-0.3647 -0.3460 -0.3817 -0.4325 -0.3594 -0.2737
-0.3335 -0.3433 -0.2746 -0.3326 -0.3870 -0.3585
-0.3210 -0.2782 -0.2701 -0.2577 -0.2068 -0.1854
-0.1890 -0.1943 -0.1675 -0.1586 -0.1524 -0.0926
-0.0962 -0.0872 -0.0596 -0.1078 -0.0953 -0.0212
0.0288 0.0216 -0.0337 0.0261 0.0555 -0.0337
-0.0694 -0.0783 -0.0551 -0.0578 -0.0302 0.0109
-0.0105 -0.0221 -0.0775 -0.0578 -0.0445 -0.0837
-0.0480 -0.1239 -0.1471 -0.0989 -0.1480 -0.1328
-0.2221 -0.3086 -0.2818 -0.3381 -0.3238 -0.3122
-0.3622 -0.3836 -0.4112 -0.4041 -0.4068 -0.4907
-0.5942 -0.6272 -0.6816 -0.6870 -0.6602 -0.7245
-0.7727 -0.8325 -0.8592 -0.8824 -0.9235 -0.9458
-1.0368 -1.0261 -0.9645 -0.9985 -1.0502 -1.0716
-1.0859 -1.2349 -1.3385 -1.3063 -1.3340 -1.3831
-1.3724 -1.3777 -1.4206 -1.3724 -1.3304 -1.3483
-1.3822 -1.4179 -1.4456 -1.4589 -1.4358 -1.4884
-1.5143 -1.5437 -1.5946 -1.5696 -1.5732 -1.5527
-1.5598 -1.5893 -1.5812 -1.5902 -1.6089 -1.6187
-1.6125 -1.6375 -1.6749 -1.7035 -1.6571 -1.6758
-1.7160 -1.6294 -1.6973 -1.7017 -1.6785 -1.7455
-1.6214 -1.6000 -1.6696 -1.6303 -1.5884 -1.5813
-1.5170 -1.4760 -1.4876 -1.3751 -1.3600 -1.3395
-1.2529 -1.2529 -1.2065 -1.2252 -1.1699 -1.0905
-1.1092 -1.1271 -1.0700 -0.9406 -0.9370 -0.8897
-0.7969 -0.7791 -0.7166 -0.6185 -0.6604 -0.6756
-0.6435 -0.5971 -0.4820 -0.4391 -0.3356 -0.3722
-0.3677 -0.2678 -0.2455 -0.1982 -0.1991 -0.0885
0.0026 0.0561 0.1123 0.1409 0.1891 0.1971
0.3006 0.3184 0.2979 0.4193 0.4585 0.4835
0.5603 0.6745 0.6905 0.6664 0.7343 0.7655
0.8262 0.8842 0.9136 0.9841 1.0332 1.0707
1.1403 1.1465 1.1965 1.3000 1.3098 1.3392
1.3812 1.4365 1.5141 1.5427 1.5400 1.5784
1.6417 1.6846 1.7435 1.7640 1.8300 1.8630
1.8943 2.0236 2.0611 2.1147 2.1280 2.1263
2.1771 2.1700 2.2075 2.2351 2.2485 2.2904
2.2922 2.3342 2.3574 2.3109 2.3145 2.2779
2.2538 2.3252 2.3904 2.3814 2.3618 2.3796
2.3395 2.3100 2.3020 2.2993 2.3172 2.2699
2.2815 2.2484 2.1476 2.1931 2.1699 2.0869
2.0450 1.9379 1.9040 1.8915 1.8843 1.8959
1.8219 1.8058 1.7300 1.6131 1.6166 1.5738
1.5542 1.4676 1.3810 1.4667 1.4622 1.4265
1.3989 1.3614 1.3275 1.2793 1.2400 1.1392
1.1231 1.0812 1.0160 1.0178 0.9732 0.9812
0.9000 0.7965 0.7537 0.7305 0.7537 0.6760
0.6332 0.6207 0.5689 0.5627 0.5359 0.5136
0.4467 0.4137 0.4636 0.4494 0.5038 0.5136
0.4752 0.4913 0.4592 0.4440 0.4360 0.4279
0.3771 0.3592 0.4172 0.4145 0.3663 0.4065
0.4324 0.4092 0.4547 0.4600 0.4823 0.5162
0.5091 0.5385 0.5537 0.5100 0.5359 0.6046
0.5332 0.5225 0.5537 0.5421 0.5858 0.5724
0.5698 0.5278 0.5706 0.6411 0.5519 0.5769
0.5590 0.5207 0.4912 0.4341 0.4867 0.4287
0.2985 0.1958 0.1548 0.1744 0.2324 0.2993
0.4028 0.6447 0.6955 0.5153 0.4983 0.5527
0.5670 0.5742 0.5278 0.5215 0.4903 0.4921
0.5857 0.6402 0.6491 0.6785 0.6616 0.6696
0.7160 0.6553 0.6643 0.6857 0.6223 0.5973
0.5804 0.5215 0.5607 0.5447 0.4554 0.5402
0.5402 0.5116 0.5795 0.5527 0.5839 0.6535
0.4804 0.4063 0.5304 0.4849 0.3028 0.1529
0.1422 0.1565 0.1315 0.2635 0.5170 0.5625
0.5241 0.5330 0.4946 0.4795 0.4652 0.5152
0.5268 0.5303 0.5437 0.4714 0.4911 0.5294
0.5642 0.5803 0.5607 0.5544 0.5642 0.5919
0.5597 0.5776 0.6026 0.5812 0.5901 0.6552
0.7034 0.6722 0.7043 0.7177 0.6713 0.6882
0.6927 0.6846 0.7194 0.7453 0.7087 0.6846
0.7239 0.7757 0.7837 0.7792 0.8497 0.8827
0.8345 0.7962 0.7685 0.7855 0.8194 0.8024
0.8292 0.8497 0.8015 0.8247 0.8399 0.8292
0.8220 0.7979 0.8229 0.8006 0.7542 0.7390
0.7426 0.7417 0.6917 0.7006 0.7122 0.7015
0.6917 0.6712 0.6649 0.5927 0.5427 0.5284
0.5213 0.5418 0.4981 0.4293 0.4570 0.4757
0.4338 0.4267 0.3740 0.3606 0.3740 0.3356
0.3205 0.2651 0.2044 0.1928 0.1518 0.1134
0.1214 0.1241 0.1393 0.1446 0.0456 -0.0561
-0.0731 -0.0481 -0.0222 -0.0722 -0.0981 -0.0972
-0.1240 -0.1445 -0.1427 -0.1677 -0.2471 -0.2221
-0.2329 -0.2686 -0.2703 -0.2793 -0.2507 -0.3105
-0.2480 -0.2748 -0.3132 -0.2561 -0.3471 -0.3890
-0.5515 -0.4649 -0.4221 -0.5586 -0.4417 -0.3953
-0.3284 -0.3489 -0.2918 -0.2481 -0.3462 -0.3266
-0.3186 -0.2989 -0.2686 -0.2240 -0.2017 -0.1517
-0.1357 -0.1490 -0.0509 0.0455 0.0392 -0.0072
0.0830 0.1213 0.0722 0.1552 0.1847 0.1293
0.2141 0.2516 0.2052 0.3025 0.3551 0.3676
0.3872 0.4202 0.4675 0.4818 0.5603 0.5657
0.6014 0.6308 0.6433 0.7272 0.6611 0.6799
0.7816 0.7388 0.7022 0.7995 0.8601 0.7664
0.7923 0.9208 0.9654 0.9137 0.9395 0.9779
0.9449 1.0225 1.0591 1.0805 1.0627 1.0636
1.1456 1.1260 1.1108 1.1055 1.1340 1.0716
1.0867 0.9788 0.7726 0.9538 0.8396 0.8556
1.0876 1.0635 1.1188 1.0894 1.1697 1.1974
1.1661 1.1920 1.1376 1.2027 1.1269 1.1037
1.1224 1.0216 1.1554 1.0751 0.9555 1.1483
1.1447 1.1170 0.9778 0.7601 1.0082 1.1188
1.0715 1.1643 1.0501 1.1152 1.2375 1.2080
1.2018 1.1366 1.1322 1.1188 1.0804 1.0367
1.0313 1.0608 1.0429 1.0840 1.0563 0.9813
0.9430 0.8287 0.7797 0.8287 0.8439 0.8314
0.8109 0.7993 0.7564 0.7493 0.7136 0.6770
0.6494 0.4905 0.4620 0.5298 0.5039 0.4289
0.4031 0.3807 0.3192 0.2531 0.1594 0.1228
0.0943 -0.0030 -0.0646 -0.0324 -0.1181 -0.1636
-0.0414 -0.0806 -0.1574 -0.2082 -0.2787 -0.2716
-0.3091 -0.3698 -0.4188 -0.4742 -0.4786 -0.4840
-0.5134 -0.5670 -0.5848 -0.5474 -0.5964 -0.6955
-0.8115 -0.9489 -0.9230 -0.8963 -0.9739 -0.9480
-0.9418 -1.0185 -1.0917 -1.1051 -1.0132 -0.9454
-1.0203 -1.0319 -0.9668 -1.0337 -1.0034 -0.9534
-0.9980 -1.0266 -1.0935 -1.1399 -1.1123 -1.1694
-1.2854 -1.3095 -1.3327 -1.2560 -1.2551 -1.2631
-1.2613 -1.2738 -1.1239 -1.3220 -1.3354 -1.0382
-1.1355 -1.0668 -0.8160 -0.9642 -1.1560 -1.0436
-1.0240 -1.0507 -0.9731 -0.9142 -0.9365 -0.9740
-0.8678 -0.8982 -0.8991 -0.7822 -0.7045 -0.6751
-0.7465 -0.7072 -0.6706 -0.6537 -0.5984 -0.6751
-0.7661 -0.6778 -0.5297 -0.4137 -0.4315 -0.4137
-0.4137 -0.5154 -0.3450 -0.3940 -0.3503 -0.2593
-0.3967 -0.1942 -0.1986 -0.2789 -0.2209 -0.3280
-0.5315 -0.5636 -0.4619 -0.4771 -0.4360 -0.4003
-0.4039 -0.4253 -0.4610 -0.4637 -0.4717 -0.4414
-0.4084 -0.4396 -0.3780 -0.2790 -0.3807 -0.4655
-0.4030 -0.4209 -0.4610 -0.4601 -0.4842 -0.4691
-0.4807 -0.4494 -0.4825 -0.4182 -0.2210 -0.3433
-0.2353 -0.1693 -0.2210 -0.0417 -0.3138 -0.4789
-0.4289 -0.3834 -0.2210 -0.1996 -0.0961 -0.0702
-0.0774 -0.0613 -0.1380 -0.1041 -0.1398 -0.2666
-0.2523 -0.2496 -0.2924 -0.3023 -0.3522 -0.3585
-0.3692 -0.4504 -0.4897 -0.5477 -0.5798 -0.6842
-0.9189 -0.8823 -0.8136 -0.7752 -0.9912 -1.2419
-1.0545 -1.3776 -1.5757 -1.3535 -1.3588 -1.2928
-1.2598 -1.2089 -1.2875 -1.3553 -1.2598 -1.3374
-1.3553 -1.3258 -1.4062 -1.4891 -1.5427 -1.4963
-1.5034 -1.5498 -1.5168 -1.5445 -1.5784 -1.5641
-1.5641 -1.5784 -1.5597 -1.5677 -1.5945 -1.5588
-1.5677 -1.5882 -1.5740 -1.5508 -1.7230 -1.8390
-1.5454 -1.5088 -1.5124 -1.3179 -1.3241 -1.3286
-1.2982 -1.2733 -1.2786 -1.2519 -1.2304 -1.2019
-1.1715 -1.1698 -1.0975 -1.0859 -1.1144 -1.0493
-0.9619 -0.9529 -0.9333 -0.9360 -0.8708 -0.7718
-0.8021 -0.8111 -0.7477 -0.6861 -0.6683 -0.6040
-0.6246 -0.5871 -0.4988 -0.6612 -0.7210 -0.5755
-0.4211 -0.4390 -0.3890 -0.2141 -0.1026 -0.0062
0.0072 0.1160 0.2124 0.3025 0.3757 0.3936
0.4739 0.4980 0.5408 0.5684 0.6247 0.7059
0.7639 0.8674 0.9049 0.9539 0.9843 1.0235
1.1297 1.1386 1.1529 1.2225 1.2698 1.3091
1.3225 1.3742 1.4572 1.4688 1.5455 1.5866
1.5705 1.6267 1.6678 1.7552 1.6731 1.6401
1.7954 1.7784 1.7972 1.8507 1.9007 1.9212
1.9221 2.0113 1.9979 2.0158 2.0845 2.0336
2.0541 2.0987 2.0113 1.9747 2.0675 2.1103
2.0220 1.9925 2.0113 2.0586 2.1148 2.0586
2.0541 2.0755 2.1085 1.9649 1.6668 1.5963
1.5972 1.5874 1.5847 1.5553 1.5222 1.7685
1.8649 1.4972 1.4178 1.5115 1.4258 1.5740
1.8524 1.7721 1.7257 1.7266 1.6436 1.6846
1.6346 1.6025 1.5927 1.5329 1.5400 1.4936
1.4695 1.5088 1.4499 1.4731 1.4758 1.3812
1.3758 1.3169 1.2919 1.3116 1.1858 1.1608
1.1893 1.0947 1.1563 1.2072 1.0679 0.8600
0.6717 0.6976 0.7369 0.6200 0.5852 0.5905
0.7092 0.9260 0.9269 0.9189 0.9707 0.9394
0.8841 0.9617 1.0063 0.9394 0.9296 0.9242
0.9135 0.7815 0.8323 0.9278 0.8287 0.8189
0.7725 0.7841 0.7565 0.7663 0.8020 0.7109
0.7734 0.6030 0.3602 0.3281 0.3076 0.3058
0.2862 0.3584 0.3254 0.3361 0.3656 0.3906
0.6699 0.6467 0.5762 0.6993 0.5878 0.5886
0.6386 0.5708 0.6440 0.6573 0.5788 0.5476
0.4351 0.3495 0.3406 0.2888 0.2709 0.2692
0.1942 0.1157 0.0773 0.0809 0.2111 0.1299
-0.0923 -0.0887 -0.1012 -0.1574 -0.1619 -0.0771
-0.0584 -0.1485 -0.1967 -0.1449 -0.1173 -0.1851
-0.1637 -0.1628 -0.1655 -0.1690 -0.2003 -0.2360
-0.2743 -0.1985 -0.1842 -0.1860 -0.1003 -0.0620
-0.0218 -0.0441 -0.1093 -0.1503 -0.1976 -0.1842
-0.1735 -0.2271 -0.3413 -0.3529 -0.3047 -0.3636
-0.4029 -0.4698 -0.4921 -0.4502 -0.4511 -0.4680
-0.4359 -0.4395 -0.4600 -0.4288 -0.5448 -0.5591
-0.5153 -0.5680 -0.5162 -0.4984 -0.5082 -0.4725
-0.4663 -0.4377 -0.3877 -0.4101 -0.4475 -0.4788
-0.4681 -0.4565 -0.5189 -0.5154 -0.4877 -0.4592
-0.4449 -0.4449 -0.4226 -0.4511 -0.4431 -0.3851
-0.3102 -0.2789 -0.3048 -0.2870 -0.2887 -0.3191
-0.2789 -0.2254 -0.2397 -0.2120 -0.1567 -0.1353
-0.1469 -0.1576 -0.1103 -0.0782 -0.0255 0.0039
0.0075 0.0351 0.0262 0.0664 0.1056 0.1181
0.1404 0.2020 0.2234 0.2261 0.3091 0.3376
0.3787 0.3457 0.3581 0.3903 0.3448 0.4313
0.4501 0.5081 0.5366 0.5321 0.6249 0.5991
0.6249 0.6749 0.6455 0.6258 0.6285 0.6535
0.6972 0.7579 0.7463 0.7597 0.7588 0.7552
0.8685 0.8328 0.8078 0.8694 0.8462 0.8712
0.8667 0.8605 0.8649 0.8578 0.8685 0.8391
0.8114 0.7882 0.8631 0.9229 0.8712 0.8917
0.8765 0.8596 0.9327 0.9122 0.8569 0.9479
0.9934 0.9604 0.9568 0.9809 1.0237 0.9613
0.9506 0.9541 0.9238 0.9613 0.9523 1.0023
1.0603 1.0326 1.0112 1.0380 1.0273 0.9755
1.0130 1.0139 0.9389 0.8649 0.8416 0.9059
0.9166 0.8657 0.8104 0.7881 0.8336 0.8077
0.7292 0.7283 0.6855 0.6105 0.6275 0.6337
0.6328 0.6712 0.6141 0.5445 0.5453 0.4981
0.4820 0.5293 0.5266 0.5302 0.5864 0.5873
0.5605 0.5052 0.4927 0.5132 0.5186 0.5864
0.5890 0.5944 0.5935 0.5614 0.6158 0.6345
0.6087 0.6319 0.5899 0.5507 0.5944 0.5801
0.5730 0.5667 0.5605 0.5988 0.6033 0.5596
0.5105 0.4757 0.4427 0.4667 0.5015 0.4944
0.4623 0.4328 0.3864 0.3034 0.3079 0.3222
0.2535 0.2659 0.2392 0.1267 0.1767 0.2231
0.2115 0.2186 0.1812 0.1749 0.1347 0.0741
0.0830 0.0937 0.0018 -0.0500 0.0277 0.0277
-0.0018 -0.0375 -0.0866 -0.0919 -0.1383 -0.1428
-0.1026 -0.1232 -0.1125 -0.0902 -0.1767 -0.1928
-0.1660 -0.2231 -0.2303 -0.2338 -0.2214 -0.2437
-0.2945 -0.2794 -0.2758 -0.2588 -0.2419 -0.2651
-0.3356 -0.3588 -0.3338 -0.3740 -0.4007 -0.4025
-0.4695 -0.5382 -0.5069 -0.4570 -0.4784 -0.5061
-0.5069 -0.5016 -0.5284 -0.5694 -0.5337 -0.5775
-0.6729 -0.7309 -0.7541 -0.7283 -0.7738 -0.7604
-0.8148 -0.8711 -0.7435 -0.7247 -0.8532 -0.9317
-0.9335 -1.0263 -1.0281 -0.9318 -1.0031 -1.0594
-1.0656 -1.1325 -1.1691 -1.1549 -1.1772 -1.2441
-1.2843 -1.3182 -1.3467 -1.3690 -1.3753 -1.4190
-1.5190 -1.4779 -1.5118 -1.6153 -1.6359 -1.6742
-1.6475 -1.6814 -1.6742 -1.6689 -1.7322 -1.7099
-1.7608 -1.7920 -1.7715 -1.7992 -1.8304 -1.8420
-1.7983 -1.7974 -1.8688 -1.8581 -1.8117 -1.8010
-1.7760 -1.7501 -1.6948 -1.6270 -1.6359 -1.6841
-1.6502 -1.6689 -1.7037 -1.6216 -1.6234 -1.6101
-1.5663 -1.5610 -1.4967 -1.4387 -1.3861 -1.4030
-1.4066 -1.3236 -1.2710 -1.2094 -1.1800 -1.2067
-1.1291 -1.0622 -1.0729 -1.0033 -0.9480 -0.9266
-0.8775 -0.8106 -0.7829 -0.7784 -0.7267 -0.6731
-0.6134 -0.5910 -0.5991 -0.5322 -0.4340 -0.4429
-0.4278 -0.3599 -0.3528 -0.3225 -0.2877 -0.2011
-0.0976 -0.0690 -0.0182 0.0550 0.0737 0.1014
0.1594 0.1629 0.1879 0.2798 0.3227 0.3316
0.3521 0.3789 0.4521 0.4708 0.4449 0.5065
0.6484 0.7099 0.7358 0.7992 0.8036 0.8750
0.9419 0.9428 0.9491 0.9803 1.0544 1.0365
1.0508 1.1052 1.1400 1.2141 1.2239 1.2257
1.2774 1.3301 1.3756 1.4577 1.4818 1.4800
1.5567 1.5746 1.5763 1.5933 1.6147 1.6602
1.6959 1.7191 1.6843 1.6959 1.7530 1.7164
1.7414 1.7717 1.7414 1.7619 1.7619 1.8083
1.8324 1.7619 1.7619 1.7807 1.7369 1.7244
1.7450 1.7387 1.6807 1.6807 1.6896 1.6548
1.6566 1.6209 1.6254 1.6263 1.5754 1.5950
1.6218 1.5647 1.5290 1.5575 1.5236 1.4852
1.5325 1.5227 1.4335 1.4022 1.3862 1.4495
1.4361 1.3416 1.3674 1.3540 1.3808 1.3656
1.3576 1.3317 1.2193 1.2764 1.2273 1.1711
1.1827 1.1068 1.0792 0.9355 0.9426 1.0560
0.9319 0.9043 0.9587 0.9212 0.9275 0.8489
0.7749 0.9043 0.8953 0.8721 0.9221 0.8034
0.7954 0.7632 0.7115 0.7284 0.6945 0.7231
0.6838 0.6678 0.6829 0.6820 0.7097 0.6981
0.7034 0.6776 0.6552 0.6909 0.7177 0.7204
0.7070 0.7266 0.7578 0.6918 0.6615 0.7320
0.6972 0.7150 0.8596 0.8587 0.8239 0.8765
0.8961 0.8221 0.8355 0.9122 0.9131 0.9497
0.9497 0.9309 0.9131 0.8810 0.9015 0.9452
0.9479 0.9015 0.9050 0.9148 0.9300 0.9086
0.8925 0.9702 0.9496 0.9113 0.8943 0.9291
0.9987 0.9246 0.8934 0.9139 0.9336 0.9675
0.9434 0.9443 0.9844 1.0362 1.0040 0.9701
0.9728 0.9889 0.9844 0.9210 0.9460 0.9130
0.8479 0.8764 0.9291 0.8621 0.7934 0.8496
0.8702 0.9014 0.8728 0.9290 0.9933 0.9210
0.9103 0.8612 0.8737 0.8728 0.8219 0.9014
0.9130 0.8692 0.8558 0.8398 0.8228 0.8469
0.8317 0.7809 0.7952 0.7264 0.7371 0.7764
0.7041 0.6649 0.6550 0.6595 0.6256 0.5961
0.5783 0.5738 0.5488 0.5738 0.6086 0.5747
0.5613 0.5042 0.5042 0.5069 0.4989 0.4971
0.4194 0.3516 0.3516 0.3489 0.3382 0.3855
0.3498 0.3088 0.3320 0.3364 0.3025 0.1794
0.1606 0.2855 0.3168 0.2365 0.1802 0.1847
0.1642 0.1731 0.2373 0.2088 0.2034 0.2266
0.1579 0.1615 0.2293 0.2463 0.2855 0.3105
0.2454 0.1927 0.2016 0.1856 0.2373 0.2971
0.2239 0.2266 0.2605 0.2123 0.2195 0.2177
0.2186 0.2667 0.2275 0.2221 0.3105 0.3042
0.2703 0.2774 0.2703 0.3274 0.3952 0.3122
0.2399 0.3087 0.3069 0.2756 0.3622 0.3711
0.3631 0.3693 0.3791 0.4371 0.4050 0.4835
0.5103 0.4728 0.5969 0.5951 0.6209 0.6557
0.6031 0.6281 0.5879 0.5861 0.6147 0.6218
0.7057 0.7262 0.7075 0.7102 0.7253 0.7521
0.7360 0.7325 0.7673 0.7628 0.7726 0.7842
0.7369 0.7637 0.7771 0.7155 0.7467 0.7654
0.7217 0.7503 0.7744 0.7779 0.7913 0.7726
0.7958 0.7047 0.6735 0.7021 0.6467 0.6958
0.6316 0.6441 0.6342 0.5048 0.5120 0.4915
0.5423 0.5468 0.4718 0.4914 0.5566 0.5735
0.5155 0.4861 0.4200 0.3629 0.3353 0.2853
0.2585 0.2523 0.2541 0.2210 0.1755 0.1398
0.0943 0.0274 0.0131 0.0363 -0.0235 -0.0752
-0.0520 -0.0583 -0.0886 -0.1359 -0.1672 -0.1752
-0.2510 -0.2796 -0.2591 -0.2966 -0.3519 -0.3564
-0.3796 -0.4251 -0.4170 -0.4545 -0.4402 -0.4287
-0.4536 -0.4786 -0.5777 -0.5509 -0.4992 -0.5143
-0.5134 -0.5242 -0.5438 -0.5991 -0.6643 -0.6562
-0.6678 -0.7116 -0.6759 -0.7098 -0.6812 -0.6429
-0.6839 -0.6384 -0.6705 -0.6687 -0.6759 -0.7428
-0.6928 -0.7089 -0.7330 -0.7044 -0.7223 -0.6679
-0.6482 -0.6411 -0.6313 -0.6224 -0.5867 -0.6902
-0.6242 -0.5465 -0.5260 -0.4841 -0.6331 -0.6251
-0.5688 -0.5653 -0.5715 -0.5689 -0.5403 -0.5894
-0.5385 -0.5894 -0.6349 -0.5599 -0.6411 -0.6438
-0.5608 -0.6028 -0.6760 -0.7616 -0.7750 -0.7358
-0.7750 -0.7715 -0.7911 -0.8116 -0.7616 -0.8116
-0.8241 -0.8134 -0.8696 -0.8429 -0.8295 -0.8991
-0.8491 -0.8554 -0.9660 -0.9446 -0.9848 -1.0062
-1.0472 -1.1400 -1.1400 -1.1026 -0.9687 -0.9214
-0.9714 -0.9455 -0.9116 -0.9303 -0.9143 -0.9045
-1.0053 -1.0401 -0.9848 -1.0009 -0.9928 -0.9161
-0.8813 -0.8974 -0.8902 -0.8929 -0.9482 -0.9366
-0.9107 -0.8510 -0.8394 -0.8974 -0.9027 -0.9125
-0.8376 -0.7992 -0.8715 -0.8760 -0.7841 -0.7171
-0.7252 -0.7386 -0.6627 -0.6707 -0.7894 -0.7439
-0.6966 -0.7029 -0.6404 -0.6467 -0.6779 -0.6279
-0.5913 -0.5557 -0.5548 -0.5280 -0.4825 -0.4495
-0.3861 -0.4066 -0.3799 -0.3370 -0.3112 -0.2737
-0.2344 -0.2184 -0.2121 -0.1068 -0.0542 -0.0908
-0.0970 -0.0176 0.0440 0.0681 0.0752 0.1537
0.2554 0.2081 0.2590 0.3117 0.2697 0.2911
0.3340 0.3696 0.3670 0.3572 0.3768 0.3937
0.3759 0.3973 0.4785 0.5044 0.4374 0.4348
0.4482 0.3919 0.4125 0.4713 0.4749 0.4660
0.5160 0.5409 0.5757 0.5731 0.5195 0.5793
0.6552 0.6873 0.6891 0.7203 0.7123 0.6989
0.7346 0.7301 0.7399 0.7613 0.7899 0.8184
0.8229 0.8157 0.8675 0.9005 0.9050 0.9826
0.9924 0.9853 1.1004 1.1539 1.1628 1.1530
1.0870 1.1646 1.1878 1.1459 1.1271 1.1396
1.2164 1.2235 1.2646 1.3110 1.3636 1.3136
1.3163 1.3627 1.2904 1.3654 1.3234 1.3288
1.4341 1.3761 1.4028 1.3725 1.3439 1.4037
1.3886 1.3716 1.4037 1.4644 1.4546 1.4519
1.4715 1.4840 1.4733 1.4305 1.3796 1.3225
1.4189 1.4751 1.4233 1.4001 1.3546 1.3546
1.3876 1.3742 1.3823 1.3653 1.2877 1.2921
1.3278 1.3341 1.2832 1.2645 1.2172 1.1984
1.2627 1.1422 1.1297 1.0753 0.9798 1.1056
1.0985 1.0913 1.0672 1.0012 0.9807 0.9548
0.9467 0.8932 0.8745 0.8254 0.8165 0.8281
0.7495 0.7156 0.7370 0.7459 0.6888 0.6558
0.6424 0.6255 0.6228 0.5916 0.5487 0.4943
0.4390 0.3694 0.3230 0.3604 0.3685 0.3265
0.3328 0.2694 0.2453 0.3122 0.2382 0.1382
0.0954 0.0989 0.0704 0.0052 0.0267 -0.0081
-0.0322 -0.0322 -0.0894 -0.0688 -0.1045 -0.2214
-0.2170 -0.2250 -0.2384 -0.2009 -0.2205 -0.2562
-0.3053 -0.2786 -0.2563 -0.2589 -0.2134 -0.2545
-0.3107 -0.2875 -0.2580 -0.2973 -0.3446 -0.3143
-0.2848 -0.3071 -0.3214 -0.3375 -0.2929 -0.3018
-0.3357 -0.2661 -0.3205 -0.3232 -0.3152 -0.3661
-0.2911 -0.2724 -0.2991 -0.3402 -0.3482 -0.3250
-0.3848 -0.4687 -0.5044 -0.4437 -0.3652 -0.3723
-0.3750 -0.3331 -0.3304 -0.3429 -0.3206 -0.3188
-0.4098 -0.4295 -0.4134 -0.4063 -0.4214 -0.4910
-0.4991 -0.5776 -0.5776 -0.5687 -0.5990 -0.5847
-0.6660 -0.6356 -0.6758 -0.7588 -0.6249 -0.6454
-0.8096 -0.9194 -0.9230 -0.8525 -0.9212 -0.9703
-0.9274 -0.8891 -0.9007 -0.9292 -0.9640 -1.1024
-1.1220 -1.0854 -1.1309 -1.1434 -1.1541 -1.1095
-1.1211 -1.1791 -1.1845 -1.2344 -1.2469 -1.2594
-1.2514 -1.2318 -1.2853 -1.2505 -1.2148 -1.2220
-1.2023 -1.2157 -1.2363 -1.2541 -1.2202 -1.2184
-1.1890 -1.1533 -1.1640 -1.0569 -1.0765 -1.0578
-1.0069 -1.0899 -1.0578 -1.0453 -1.0007 -0.9900
-1.0212 -0.9463 -0.9168 -0.9008 -0.8624 -0.8446
-0.8606 -0.8017 -0.7527 -0.7428 -0.6839 -0.7036
-0.7152 -0.7027 -0.7063 -0.6625 -0.6500 -0.6420
-0.5778 -0.5180 -0.4466 -0.4529 -0.5171 -0.4404
-0.3654 -0.4011 -0.4546 -0.4216 -0.3279 -0.3110
-0.2994 -0.2164 -0.1941 -0.1727 -0.1557 -0.1914
-0.1477 -0.1343 -0.0808 -0.0379 -0.0397 -0.0219
-0.0308 0.0593 0.0049 -0.0638 0.0120 0.0245
0.0174 0.0343 0.0994 0.1369 0.1958 0.2538
0.2306 0.2047 0.2360 0.2850 0.3305 0.3707
0.3546 0.4073 0.3993 0.3832 0.4706 0.4662
0.4358 0.4680 0.5741 0.5884 0.5724 0.5911
0.5313 0.5955 0.5688 0.4519 0.5206 0.4813
0.5009 0.5857 0.5750 0.6482 0.4947 0.2716
0.1833 0.3706 0.6874 0.6321 0.6259 0.6419
0.6062 0.6053 0.5946 0.6785 0.6508 0.7017
0.7820 0.7374 0.7026 0.6812 0.6820 0.6776
0.6651 0.6410 0.6758 0.7418 0.7079 0.6704
0.6865 0.6437 0.6963 0.7695 0.7141 0.7489
0.7534 0.7302 0.7463 0.6749 0.6900 0.7552
0.7632 0.7775 0.7587 0.7525 0.7257 0.6686
0.6820 0.7917 0.8239 0.7480 0.7632 0.7355
0.7132 0.7810 0.7676 0.7400 0.7542 0.7810
0.7507 0.6900 0.7016 0.7016 0.7275 0.7542
0.7471 0.7631 0.7783 0.8033 0.7953 0.7551
0.7578 0.7765 0.7417 0.7587 0.8167 0.8238
0.8060 0.7819 0.7239 0.6605 0.7337 0.7230
0.7631 0.7551 0.4990 0.6382 0.7105 0.6480
0.7265 0.6756 0.6301 0.3107 0.2973 0.4409
0.2910 0.4784 0.6506 0.6471 0.6417 0.6890
0.6551 0.5230 0.5614 0.5471 0.5855 0.5783
0.5186 0.5810 0.5623 0.5373 0.5623 0.5542
0.2705 0.0135 0.1000 0.1527 0.0947 0.1411
0.2133 0.2339 0.4221 0.3936 0.0527 0.0616
0.2481 0.3552 0.4239 0.3989 0.3855 0.3142
0.1776 0.0438 0.0107 0.0250 0.0884 0.3266
0.3614 0.3498 0.4685 0.2686 0.2258 0.2633
0.0830 0.2954 0.4408 0.4489 0.4667 0.3364
0.4123 0.1695 -0.0259 0.1285 0.0321 -0.0223
-0.0544 -0.0339 0.1258 0.2971 0.2909 0.1320
0.1374 0.0731 0.1240 0.3480 0.3667 0.4140
0.3524 0.3319 0.3988 0.2793 0.3257 0.3462
0.2882 0.1650 0.0508 0.2498 0.3471 0.3078
0.2480 0.1793 0.1918 0.0303 0.0535 0.1927
0.1525 0.1846 0.2177 0.1971 0.0963 0.1623
0.2748 0.2150 0.1891 0.2266 0.1489 0.0775
0.1516 0.0588 -0.0447 0.0543 0.1730 0.1105
0.1364 0.2783 0.2176 0.2444 0.3488 0.3747
0.3604 0.3488 0.3791 0.4059 0.3782 0.3398
0.3639 0.3470 0.3836 0.4130 0.3657 0.3684
0.4094 0.4817 0.4299 0.4032 0.4790 0.4879
0.5370 0.5513 0.5022 0.5442 0.5781 0.5727
0.6030 0.6111 0.6432 0.6726 0.6664 0.6628
0.6485 0.7244 0.7512 0.7280 0.7404 0.7494
0.8564 0.8805 0.8431 0.7806 0.7342 0.7949
0.7931 0.8270 0.8047 0.7609 0.8038 0.7743
0.7788 0.8225 0.8234 0.8136 0.8011 0.7975
0.8207 0.8421 0.7948 0.7341 0.7609 0.8029
0.8064 0.7921 0.7439 0.7136 0.7207 0.7261
0.7181 0.6520 0.7038 0.7234 0.6136 0.6654
0.6074 0.5414 0.5494 0.5226 0.5369 0.5369
0.5904 0.4057 0.1273 0.0577 0.0497 0.0157
-0.0476 0.0380 0.0496 -0.0414 -0.0325 -0.0619
-0.0994 -0.0664 -0.0057 -0.0262 0.1121 0.3673
0.3298 0.2745 0.2504 -0.0102 -0.1235 -0.1083
-0.1797 -0.1878 -0.2136 -0.1699 -0.0842 0.0130
-0.0039 -0.2065 -0.1806 0.0799 0.1950 0.1683
0.2495 0.2236 0.1138 0.1361 0.1727 0.1754
0.1361 0.0799 0.0290 0.0487 0.1040 0.0585
0.0531 0.0353 -0.2744 -0.3413 -0.2771 -0.3957
-0.1289 0.0942 0.0620 0.0424 0.0379 0.0656
0.0147 0.0531 0.0906 0.0558 0.0861 0.0201
-0.1040 -0.0656 -0.0353 -0.0335 0.0058 -0.0495
-0.0594 -0.1388 -0.2307 -0.2646 -0.3378 -0.3012
-0.3235 -0.3199 -0.2816 -0.3173 -0.3726 -0.3833
-0.2816 -0.3458 -0.4547 -0.4333 -0.4663 -0.5172
-0.4913 -0.4984 -0.5547 -0.5645 -0.5957 -0.5966
-0.5895 -0.6162 -0.6073 -0.6350 -0.7001 -0.7073
-0.6564 -0.7108 -0.7537 -0.7546 -0.8376 -0.8072
-0.8063 -0.7903 -0.7858 -0.8447 -0.8608 -1.0517
-1.0696 -1.0018 -1.0509 -1.0277 -1.0642 -1.0643
-1.0205 -1.0071 -1.0071 -0.9688 -0.9599 -1.0678
-1.0839 -1.0705 -1.0669 -0.9938 -0.9670 -0.9822
-0.9759 -0.9688 -1.0241 -1.0161 -0.9724 -0.9920
-0.9563 -0.9340 -0.9528 -0.9510 -0.9867 -1.0027
-0.9617 -0.9876 -0.9697 -0.8966 -0.9242 -0.9385
-0.8966 -0.8359 -0.8395 -0.9278 -0.9233 -0.8689
-0.8885 -0.8520 -0.7645 -0.7288 -0.7199 -0.7975
-0.8430 -0.8306 -0.8234 -0.7726 -0.7360 -0.7163
-0.7262 -0.7146 -0.6896 -0.7306 -0.7306 -0.6708
-0.6682 -0.6753 -0.6825 -0.6485 -0.5950 -0.6378
-0.5781 -0.5611 -0.6637 -0.6584 -0.7208 -0.7298
-0.5736 -0.5451 -0.5549 -0.4719 -0.3960 -0.3577
-0.3586 -0.3595 -0.3604 -0.3291 -0.3398 -0.3568
-0.2729 -0.2818 -0.3175 -0.2756 -0.2943 -0.2783
-0.1980 -0.2471 -0.2524 -0.1980 -0.2488 -0.2381
-0.2132 -0.2399 -0.1784 -0.1462 -0.1739 -0.1453
-0.1837 -0.2096 -0.1543 -0.1293 -0.1159 -0.1070
-0.1302 -0.1498 -0.1097 -0.0918 -0.1320 -0.1347
-0.1784 -0.2560 -0.2542 -0.2542 -0.2257 -0.2079
-0.2373 -0.1963 -0.1507 -0.1686 -0.2070 -0.1579
-0.1329 -0.1097 -0.0812 -0.1784 -0.1231 -0.0892
-0.1642 -0.1222 -0.1160 -0.1427 -0.1195 -0.0981
-0.0892 -0.0535 -0.0392 -0.0196 -0.0268 -0.0607
-0.0018 -0.0437 -0.1410 -0.0758 -0.0589 -0.0999
-0.0848 -0.0946 -0.0964 -0.1187 -0.1267 -0.1026
-0.1731 -0.1937 -0.0794 -0.0205 -0.0268 -0.0670
-0.0866 -0.0330 -0.0322 -0.1125 -0.0991 -0.0643
-0.0634 -0.0688 -0.0795 -0.0456 -0.0991 -0.0179
-0.0607 -0.4079 -0.5007 -0.3436 -0.1045 0.0231
0.0392 0.1159 0.2177 0.2935 0.3015 0.3051
0.2989 0.2757 0.2623 0.2756 0.2730 0.2435
0.2730 0.2917 0.3604 0.4309 0.3863 0.4015
0.4523 0.4782 0.4550 0.4844 0.5460 0.4898
0.5469 0.5612 0.4746 0.4889 0.4728 0.5103
0.5647 0.5379 0.4478 0.3943 0.4683 0.5246
0.5237 0.5692 0.6040 0.5906 0.6004 0.5183
0.4514 0.4710 0.4969 0.5584 0.5370 0.5156
0.5120 0.4594 0.4835 0.4915 0.4469 0.3978
0.3434 0.3719 0.3380 0.2648 0.3184 0.2952
0.2630 0.3371 0.3425 0.3085 0.2889 0.2461
0.2702 0.2541 0.2300 0.3371 0.3112 0.1970
0.1809 0.2603 0.2550 0.2095 0.2416 0.2032
0.2353 0.2568 0.2148 0.1827 0.1506 0.2443
0.2773 0.2300 0.2755 0.1925 0.0363 0.0827
0.1291 0.0684 0.1068 0.1398 0.1800 0.2737
0.2246 0.1862 0.2041 0.2469 0.2683 0.2460
0.2594 0.2763 0.3593 0.3031 0.2415 0.3129
0.3299 0.3932 0.4236 0.4485 0.4807 0.4396
0.4450 0.4664 0.4476 0.4690 0.5047 0.5297
0.5824 0.5922 0.5725 0.5556 0.5949 0.5886
0.5600 0.6296 0.6850 0.6591 0.5600 0.5841
0.6279 0.6760 0.7296 0.6368 0.6760 0.6903
0.6841 0.7947 0.7867 0.8197 0.8491 0.8027
0.8027 0.7929 0.7938 0.7875 0.7527 0.7358
0.7759 0.8125 0.7929 0.8250 0.8562 0.8839
0.8643 0.8384 0.9089 0.8759 0.8473 0.8125
0.8009 0.8241 0.7929 0.8116 0.7598 0.7670
0.7723 0.7866 0.9080 0.8901 0.7884 0.7982
0.8473 0.7331 0.6724 0.7509 0.7464 0.7116
0.7268 0.6991 0.6545 0.6527 0.6706 0.6848
0.6090 0.6027 0.6563 0.6090 0.6313 0.6991
0.6732 0.6134 0.5911 0.5510 0.5733 0.6402
0.5724 0.4956 0.4626 0.5081 0.5634 0.4885
0.4519 0.4448 0.3912 0.3279 0.3243 0.3573
0.3591 0.3618 0.3466 0.3029 0.3171 0.4278
0.3073 0.1395 0.2386 0.2083 0.1565 0.2243
0.2323 0.1726 0.0887 0.1101 0.1368 0.0681
0.0708 0.1636 0.1609 0.1645 0.2100 0.1957
0.1591 0.1502 0.1484 0.1127 0.1359 0.1466
0.1261 0.1216 0.1127 0.0904 0.0975 0.1511
0.1341 0.1368 0.1341 0.1181 0.1422 0.0993
0.0779 0.1091 0.1805 0.1975 0.1323 0.1180
0.1234 0.1377 0.1395 0.1198 0.1118 0.1261
0.1582 0.2055 0.2162 0.1537 0.1305 0.0716
0.0439 0.0814 0.0671 0.1412 0.1091 0.0555
0.0912 0.0430 0.1403 0.2179 0.1608 0.1528
0.1769 0.2054 0.2268 0.2393 0.2215 0.2259
0.2375 0.2465 0.2465 0.2126 0.2215 0.2429
0.2509 0.2527 0.2331 0.2616 0.2714 0.2732
0.3580 0.3839 0.3544 0.3294 0.3580 0.3642
0.3080 0.3223 0.3142 0.3223 0.3615 0.3428
0.3535 0.3722 0.3472 0.3196 0.3008 0.3098
0.3410 0.3651 0.3829 0.4142 0.4266 0.3758
0.3999 0.4561 0.4704 0.4989 0.4677 0.4489
0.4811 0.5560 0.5774 0.5034 0.5640 0.6381
0.6283 0.6667 0.6845 0.6774 0.6747 0.6613
0.6747 0.6765 0.7050 0.7264 0.7050 0.6854
0.6827 0.7112 0.6943 0.7291 0.6925 0.5943
0.6809 0.7683 0.7737 0.7782 0.7648 0.7451
0.7880 0.8344 0.8245 0.8531 0.8469 0.8040
0.8352 0.8326 0.8451 0.8103 0.7674 0.8040
0.7665 0.7683 0.7737 0.7799 0.7835 0.7442
0.6853 0.6817 0.6996 0.6648 0.6791 0.6023
0.5952 0.6317 0.5961 0.6201 0.5818 0.5523
0.5470 0.5916 0.6514 0.6282 0.6005 0.5282
0.4818 0.4809 0.4773 0.4934 0.4845 0.4764
0.4809 0.5059 0.4515 0.3551 0.3694 0.4077
0.4452 0.4425 0.3658 0.3595 0.4256 0.3560
0.2890 0.3345 0.3042 0.2730 0.2622 0.2783
0.2828 0.2265 0.2248 0.1962 0.1748 0.2123
0.1962 0.1230 0.1061 0.0971 0.0837 0.0945
0.0489 0.0347 0.0177 0.0168 0.0097 -0.0519
-0.0582 -0.0653 -0.0983 -0.1019 -0.0823 -0.1171
-0.2009 -0.3161 -0.2375 -0.1474 -0.2795 -0.2831
-0.2634 -0.2527 -0.2982 -0.3848 -0.3107 -0.3000
-0.3616 -0.4018 -0.4303 -0.4910 -0.5160 -0.5187
-0.5722 -0.5972 -0.6133 -0.5437 -0.5758 -0.6525
-0.6632 -0.7311 -0.7355 -0.7418 -0.7328 -0.7801
-0.8533 -0.8257 -0.8078 -0.8328 -0.9203 -0.9363
-0.9015 -0.8980 -0.8498 -0.8846 -0.9390 -0.9229
-0.9863 -1.0184 -1.0140 -1.0318 -1.0184 -1.0515
-1.0907 -1.0657 -1.0729 -1.1086 -1.1300 -1.1710
-1.1853 -1.1907 -1.1675 -1.1809 -1.2255 -1.1818
-1.1818 -1.1907 -1.1621 -1.2050 -1.2300 -1.1372
-1.1095 -1.1497 -1.1158 -1.1363 -1.1318 -1.1381
-1.2336 -1.2050 -1.1631 -1.1970 -1.2023 -1.1345
-1.1042 -1.1711 -1.1515 -1.1229 -1.0926 -1.0667
-1.0899 -1.0266 -1.0301 -1.0828 -1.1283 -1.1247
-1.0069 -0.9936 -1.0346 -1.0328 -1.0462 -0.9864
-0.8918 -0.8481 -0.7901 -0.7803 -0.7830 -0.7669
-0.7473 -0.7107 -0.6973 -0.6509 -0.6500 -0.6099
-0.5697 -0.5581 -0.4921 -0.5189 -0.4609 -0.3832
-0.3904 -0.3600 -0.3333 -0.2405 -0.1637 -0.1477
-0.1521 -0.1289 -0.0611 -0.0183 -0.0040 -0.0370
0.0183 0.0718 0.0727 0.0888 0.0834 0.1352
0.0852 0.0950 0.1905 0.1566 0.1869 0.2057
0.2262 0.3101 0.2878 0.2976 0.3529 0.3252
0.3002 0.3136 0.3895 0.4011 0.3457 0.4064
0.4591 0.4617 0.4840 0.4849 0.4715 0.4671
0.5456 0.6116 0.6116 0.6152 0.5893 0.5741
0.5367 0.5741 0.5982 0.5706 0.6375 0.6544
0.6839 0.6509 0.6161 0.6143 0.6116 0.6866
0.6294 0.6116 0.6517 0.6330 0.6455 0.6580
0.6553 0.6732 0.6883 0.6196 0.6776 0.7633
0.7053 0.6901 0.7374 0.7294 0.6580 0.6437
0.6249 0.6240 0.6687 0.7061 0.6981 0.6892
0.7258 0.7293 0.7427 0.7400 0.7731 0.7918
0.7570 0.7516 0.7088 0.7034 0.7489 0.7588
0.7971 0.8275 0.7998 0.8060 0.8060 0.8123
0.8114 0.8141 0.8631 0.8319 0.7784 0.7650
0.8239 0.8489 0.8310 0.8872 0.8774 0.8310
0.7792 0.8078 0.9042 0.8970 0.9015 0.8676
0.8194 0.8863 0.9309 0.9398 0.9149 0.8577
0.8515 0.8783 0.8925 0.9300 0.9684 0.9630
0.9835 1.0219 1.0317 1.0326 1.0451 1.0406
1.0032 0.9933 1.0513 1.1120 1.0737 1.0558
1.1013 1.0790 1.0469 1.1049 1.1370 1.1379
1.1923 1.1914 1.1513 1.1575 1.2209 1.2307
1.2102 1.2396 1.1941 1.1593 1.1495 1.1753
1.2226 1.2307 1.2333 1.1655 1.2012 1.2155
1.2726 1.3707 1.2913 1.2922 1.1994 1.2128
1.2877 1.1923 1.2190 1.1914 1.2119 1.2529
1.1869 1.1985 1.1815 1.1574 1.1699 1.1298
1.1324 1.1369 1.0959 1.0976 1.1030 1.1128
1.1012 1.0735 1.0343 0.9959 0.9897 0.9566
0.9031 0.8692 0.8451 0.8701 0.8933 0.8237
0.7728 0.7478 0.7157 0.6737 0.6354 0.6059
0.5568 0.5791 0.5774 0.5301 0.5024 0.4462
0.3998 0.4078 0.4105 0.3614 0.3302 0.2909
0.2302 0.1642 0.1392 0.1151 0.0776 0.0330
-0.0081 0.0116 -0.0652 -0.0786 -0.0357 -0.1178
-0.1348 -0.1446 -0.1803 -0.2026 -0.2749 -0.2892
-0.2972 -0.3338 -0.3606 -0.4329 -0.4810 -0.5025
-0.5105 -0.5310 -0.6078 -0.6212 -0.5730 -0.6194
-0.6738 -0.6569 -0.6783 -0.6863 -0.6542 -0.6801
-0.7461 -0.7764 -0.8309 -0.8568 -0.8273 -0.8211
-0.8300 -0.8371 -0.7925 -0.8559 -0.9380 -0.8800
-0.8720 -0.8827 -0.8737 -0.8827 -0.8657 -0.8470
-0.8372 -0.7899 -0.7872 -0.8390 -0.7747 -0.7943
-0.8309 -0.6685 -0.6926 -0.7488 -0.6105 -0.5784
-0.6302 -0.6195 -0.6159 -0.6141 -0.5320 -0.5222
-0.5490 -0.4794 -0.4160 -0.3937 -0.4062 -0.4285
-0.3991 -0.3527 -0.2974 -0.2447 -0.2179 -0.1778
-0.1234 -0.0903 -0.1216 -0.1127 -0.0680 -0.0868
-0.0002 0.1318 0.1193 0.1006 0.0836 0.0774
0.1550 0.2184 0.2175 0.2220 0.3406 0.4102
0.4147 0.4986 0.5155 0.5378 0.6485 0.6949
0.6993 0.7127 0.7556 0.7520 0.8109 0.9135
0.8724 0.9099 0.9626 1.0268 1.0616 1.0509
1.1160 1.0866 1.1517 1.2329 1.2419 1.2954
1.3213 1.3150 1.3471 1.4712 1.4756 1.4069
1.3944 1.4123 1.4319 1.4274 1.4605 1.4863
1.4944 1.5104 1.5292 1.4774 1.4149 1.4667
1.5122 1.5015 1.5452 1.5871 1.5702 1.5595
1.5363 1.5131 1.4604 1.4131 1.3649 1.3301
1.3962 1.3399 1.3346 1.4122 1.3703 1.4167
1.3997 1.3355 1.3283 1.2712 1.2346 1.2373
1.2034 1.1668 1.1829 1.1061 1.0865 1.0758
1.0053 1.0891 1.1445 1.1284 1.1025 1.0972
1.0695 1.0213 0.9794 0.8651 0.8982 0.9776
0.9392 0.9098 0.8580 0.8393 0.8491 0.8152
0.7928 0.7554 0.7768 0.8152 0.7866 0.7687
0.7536 0.7313 0.6759 0.6367 0.5653 0.5394
0.5876 0.4350 0.2440 0.2422 0.2619 0.1807
0.0682 -0.0273 0.0281 0.1280 0.0245 -0.0344
0.0548 0.1396 0.2261 0.2824 0.2717 0.2520
0.2288 0.2244 0.2270 0.2154 0.2359 0.2297
0.2279 0.2056 0.1690 0.1190 0.0655 0.0816
0.0682 0.0780 0.0699 0.0735 0.1297 0.1217
0.1288 0.1895 0.1119 -0.0488 -0.0077 0.0324
0.0092 -0.1942 -0.4932 -0.3727 -0.3263 -0.3923
-0.3174 -0.3263 -0.2585 -0.2817 -0.1853 0.0119
-0.0399 -0.1345 -0.1077 0.0342 0.0529 0.0494
0.0958 0.0842 0.1297 0.1395 0.0877 0.0360
-0.0060 0.0199 0.0440 0.0699 0.0217 -0.0185
-0.0426 -0.0827 -0.1443 -0.3067 -0.2514 -0.3272
-0.4906 -0.4459 -0.4790 -0.4798 -0.4977 -0.5263
-0.5138 -0.4254 -0.2782 -0.2943 -0.4272 -0.5254
-0.6244 -0.5548 -0.4388 -0.4522 -0.3898 -0.4237
-0.4031 -0.3050 -0.2773 -0.2675 -0.3103 -0.2595
-0.2952 -0.3380 -0.3032 -0.3612 -0.3541 -0.3782
-0.4371 -0.4514 -0.4683 -0.3871 -0.3711 -0.4478
-0.5281 -0.5843 -0.5290 -0.5486 -0.5817 -0.5611
-0.5701 -0.5058 -0.5629 -0.6415 -0.6156 -0.6879
-0.7013 -0.6593 -0.6682 -0.7566 -0.8619 -0.8458
-0.8298 -0.7985 -0.7477 -0.7771 -0.7914 -0.8093
-0.7852 -0.7869 -0.8690 -0.7950 -0.7959 -0.8744
-0.9172 -0.9297 -0.9155 -0.9565 -0.8798 -0.8200
-0.8307 -0.8619 -0.8423 -0.8218 -0.8869 -0.9074
-0.9467 -0.9208 -0.9083 -0.9110 -0.8396 -0.8852
-0.9021 -0.8887 -0.8745 -0.8423 -0.9137 -0.9414
-0.9316 -0.8941 -0.8789 -0.9244 -0.9012 -0.8566
-0.8557 -0.8879 -0.9833 -0.9887 -0.8763 -0.8549
-0.7977 -0.7933 -0.7888 -0.7201 -0.7335 -0.6871
-0.6934 -0.6978 -0.6568 -0.6461 -0.6139 -0.6068
-0.6113 -0.6193 -0.5586 -0.5247 -0.5452 -0.5203
-0.4971 -0.4168 -0.3784 -0.3543 -0.2972 -0.3231
-0.2963 -0.3204 -0.3052 -0.2294 -0.2517 -0.1803
-0.1259 -0.1526 -0.1758 -0.1232 -0.0947 -0.1750
-0.1580 -0.1259 -0.1464 -0.1562 -0.1000 -0.0741
-0.1259 -0.0902 -0.0376 0.0213 0.0454 0.0490
0.0534 0.0133 0.0302 -0.0242 -0.0724 -0.0670
-0.0090 0.0293 0.0142 0.0980 0.0338 -0.0073
0.0374 0.0204 0.0240 -0.0064 0.0079 -0.0224
-0.0251 0.0124 -0.0019 -0.0055 -0.0242 -0.0233
-0.0724 -0.1331 -0.1224 -0.0858 -0.0662 -0.0403
-0.0251 -0.0921 -0.1376 -0.1510 -0.1403 -0.1046
-0.1331 -0.1224 -0.1206 -0.2108 -0.2242 -0.2188
-0.1867 -0.1510 -0.2367 -0.2581 -0.1921 -0.1555
-0.1822 -0.2438 -0.2224 -0.2126 -0.2831 -0.2376
-0.2188 -0.2670 -0.2429 -0.2367 -0.2251 -0.2688
-0.3125 -0.2849 -0.2688 -0.2590 -0.2670 -0.2903
-0.2662 -0.2706 -0.3072 -0.2894 -0.3215 -0.3188
-0.3117 -0.3840 -0.3786 -0.3527 -0.3367 -0.3135
-0.3956 -0.4000 -0.2591 -0.2787 -0.2528 -0.1689
-0.1734 -0.1841 -0.2439 -0.2421 -0.2707 -0.2510
-0.1716 -0.1895 -0.2118 -0.1502 -0.0886 -0.1279
-0.1377 -0.1163 -0.0958 -0.0592 -0.0360 -0.0387
-0.0664 -0.0440 -0.0476 -0.0539 -0.0146 0.0175
0.0193 -0.0512 -0.0039 0.0086 -0.0084 0.1371
0.1737 0.2281 0.2807 0.2085 0.2486 0.3370
0.3601 0.3584 0.3816 0.4190 0.4164 0.4297
0.4476 0.4628 0.5065 0.6180 0.6546 0.5689
0.5698 0.5555 0.5136 0.5270 0.5734 0.5841
0.5448 0.5698 0.6019 0.6117 0.6492 0.6465
0.6644 0.6671 0.6332 0.6715 0.6679 0.6251
0.5734 0.5564 0.5368 0.5832 0.6331 0.6412
0.7241 0.7045 0.7108 0.6831 0.6349 0.6706
0.6599 0.7125 0.7491 0.7054 0.6911 0.6858
0.6893 0.7223 0.6795 0.6661 0.6973 0.6840
0.6804 0.6759 0.6001 0.5198 0.5742 0.6143
0.5983 0.5724 0.5331 0.5420 0.5438 0.5813
0.6045 0.5849 0.6045 0.6116 0.6313 0.6027
0.5991 0.5742 0.5474 0.6116 0.5706 0.5786
0.5732 0.5509 0.6143 0.6161 0.5813 0.5527
0.5054 0.4331 0.4412 0.4777 0.4742 0.4804
0.5509 0.6241 0.6758 0.6401 0.5893 0.6981
0.6723 0.5571 0.5982 0.6151 0.6062 0.6535
0.6035 0.6009 0.6562 0.6187 0.6187 0.6178
0.5803 0.5634 0.6017 0.6258 0.6339 0.6624
0.6892 0.6981 0.6115 0.5758 0.6856 0.6321
0.5482 0.6552 0.6731 0.6963 0.7275 0.6811
0.6178 0.5785 0.6044 0.5954 0.5740 0.5473
0.6231 0.6374 0.5901 0.5776 0.4982 0.5588
0.6061 0.6222 0.6686 0.6472 0.6436 0.6311
0.6088 0.5642 0.5811 0.5936 0.5329 0.4785
0.3902 0.3750 0.3884 0.3884 0.4223 0.4383
0.4267 0.4178 0.4472 0.4580 0.4249 0.3500
0.3045 0.3598 0.4222 0.4178 0.3785 0.2911
0.2652 0.3214 0.2661 0.2607 0.3027 0.2420
0.2937 0.3455 0.2438 0.2045 0.2116 0.2188
0.2375 0.1741 0.1340 0.1331 0.1277 0.1286
0.1063 0.1099 0.1009 0.0679 0.0278 0.0340
0.0849 0.0429 0.0010 -0.0079 -0.0249 -0.0026
-0.0311 -0.1248 -0.1347 -0.1570 -0.1828 -0.1936
-0.2658 -0.2489 -0.2444 -0.2400 -0.2328 -0.3230
-0.2953 -0.2507 -0.3337 -0.3480 -0.3712 -0.4559
-0.4497 -0.4872 -0.5354 -0.5568 -0.5889 -0.5728
-0.5604 -0.5987 -0.6389 -0.6326 -0.6799 -0.6603
-0.6451 -0.6567 -0.7335 -0.8111 -0.6773 -0.6719
-0.7228 -0.7460 -0.7665 -0.7094 -0.7781 -0.7755
-0.7496 -0.8004 -0.7585 -0.7871 -0.7656 -0.7523
-0.7924 -0.7665 -0.7924 -0.7826 -0.7933 -0.8121
-0.7933 -0.8130 -0.8344 -0.8299 -0.9102 -0.9138
-0.8023 -0.8531 -0.8460 -0.7523 -0.7068 -0.6399
-0.6042 -0.5783 -0.6015 -0.5783 -0.5114 -0.5685
-0.5783 -0.5587 -0.5605 -0.4980 -0.4650 -0.4641
-0.4257 -0.3981 -0.4150 -0.3758 -0.3231 -0.2776
-0.2473 -0.2455 -0.2232 -0.2348 -0.2045 -0.1991
-0.1991 -0.1366 -0.0992 -0.0242 0.0186 0.0570
0.0133 -0.0037 0.0686 0.0070 0.0373 0.1141
0.1266 0.1185 0.1123 0.0953 0.1266 0.1712
0.1141 0.1631 0.2327 0.3015 0.2827 0.2524
0.3657 0.3702 0.4121 0.4112 0.3978 0.4817
0.4183 0.4585 0.4897 0.4558 0.5459 0.4986
0.5031 0.5656 0.5593 0.5870 0.6084 0.6227
0.6200 0.6682 0.6994 0.7235 0.6931 0.6833
0.7422 0.6967 0.6521 0.5968 0.6583 0.7101
0.6610 0.6664 0.5932 0.5905 0.6235 0.6137
0.5735 0.5084 0.5753 0.6190 0.5450 0.4843
0.5494 0.5485 0.5146 0.5682 0.5575 0.5592
0.4878 0.4316 0.4539 0.4370 0.4566 0.4218
0.3781 0.4129 0.3950 0.3147 0.2496 0.2531
0.2576 0.2406 0.2058 0.1264 0.2130 0.2442
0.1915 0.2183 0.1692 0.2353 0.1933 0.0354
0.0809 0.1880 0.1826 0.1094 0.1549 0.1844
0.1531 0.1246 0.1014 0.1112 0.1112 0.1023
0.0541 0.0514 0.0568 -0.0155 -0.0048 -0.0111
-0.0539 -0.0191 -0.0557 -0.1101 -0.1217 -0.1387
-0.1316 -0.1556 -0.1378 -0.0548 -0.0254 -0.0495
-0.1387 -0.1887 -0.1833 -0.1994 -0.1691 -0.1494
-0.1807 -0.2110 -0.2333 -0.2556 -0.2297 -0.2458
-0.2574 -0.1709 -0.1227 -0.1798 -0.1941 -0.1352
-0.2191 -0.2476 -0.1744 -0.2066 -0.2226 -0.1852
-0.2423 -0.2253 -0.1584 -0.2226 -0.2039 -0.2325
-0.2111 -0.1557 -0.2012 -0.1361 -0.1307 -0.1432
-0.1254 -0.0781 -0.0165 -0.0415 -0.0317 -0.0344
-0.0049 0.0415 -0.0201 -0.0737 -0.0451 0.0290
0.0102 0.0254 0.0673 0.0236 0.0120 0.0316
0.0682 -0.0880 -0.1094 0.0379 0.0093 0.0477
0.0441 0.0164 0.0405 0.0664 0.0709 0.0869
0.1280 0.0048 -0.0095 0.0887 0.0949 0.1280
0.0869 0.0842 0.1324 0.1342 0.1476 0.1146
0.1494 0.0958 0.1083 0.2145 0.0967 0.0806
0.1012 0.0788 0.0663 0.0342 0.0503 0.0842
0.0806 0.0806 0.1109 0.0476 0.1350 0.1092
0.0235 0.0735 0.0378 0.0422 0.0021 0.0520
0.0984 0.0842 0.0360 0.0208 0.0315 -0.0336
0.0529 0.0413 0.0172 0.0815 0.0627 0.0645
0.0681 0.0984 0.0386 -0.0408 0.0217 0.0886
0.1037 0.0921 0.0859 0.0984 0.0582 0.0912
0.1733 0.1109 0.1332 0.1073 0.1225 0.1706
0.0555 0.1421 -0.0542 -0.2184 -0.1149 -0.1845
0.0225 0.1439 0.1117 0.1688 0.1305 0.1626
0.1555 0.0974 0.1715 0.1180 0.0635 0.1358
0.0867 0.1055 0.0867 0.0582 0.0921 0.0501
0.0662 0.0430 0.0394 0.0510 0.0233 -0.0043
-0.0534 -0.0150 -0.0025 0.0082 0.0287 0.0171
0.0528 -0.0275 -0.0606 -0.0240 -0.0507 -0.0284
-0.0552 -0.1096 -0.0650 -0.0829 -0.1355 -0.0481
-0.0106 -0.0017 -0.0258 -0.0829 -0.0883 -0.1141
-0.1900 -0.2400 -0.1463 -0.1472 -0.1793 -0.2105
-0.2774 -0.3408 -0.3854 -0.2998 -0.3203 -0.3542
-0.3283 -0.3078 -0.2980 -0.3426 -0.3221 -0.2864
-0.3301 -0.3810 -0.3462 -0.3435 -0.3676 -0.3578
-0.4185 -0.4247 -0.3810 -0.3989 -0.3748 -0.3596
-0.4319 -0.4595 -0.4363 -0.4444 -0.4390 -0.4149
-0.4524 -0.5006 -0.4792 -0.4355 -0.4703 -0.5479
-0.5131 -0.4042 -0.4051 -0.4355 -0.4239 -0.4132
-0.3525 -0.3311 -0.3150 -0.3239 -0.3025 -0.1758
-0.2196 -0.2410 -0.1776 -0.2606 -0.2196 -0.1196
-0.1285 -0.1116 -0.0929 -0.0652 -0.0206 -0.0340
-0.0750 -0.0581 -0.0152 0.0437 0.0910 0.0686
0.1008 0.1481 0.1445 0.2257 0.2748 0.2542
0.2649 0.2872 0.2748 0.2605 0.2971 0.3381
0.3970 0.3961 0.3756 0.3988 0.3907 0.3800
0.4255 0.4960 0.4755 0.4291 0.4693 0.4630
0.3809 0.3747 0.4220 0.4219 0.4175 0.4166
0.4050 0.3720 0.2890 0.3541 0.4755 0.4728
0.4594 0.4201 0.4121 0.4648 0.5326 0.5495
0.5352 0.5183 0.5040 0.4817 0.4469 0.4612
0.4397 0.4683 0.4826 0.4281 0.4835 0.5129
0.4817 0.4826 0.4835 0.4817 0.5120 0.5575
0.5593 0.5174 0.5316 0.6030 0.5852 0.5798
0.6093 0.5423 0.5227 0.6030 0.6155 0.5905
0.5869 0.5718 0.5896 0.6057 0.6333 0.6235
0.5869 0.6574 0.6039 0.5280 0.5878 0.5798
0.5905 0.5360 0.5227 0.6146 0.5360 0.5173
0.6030 0.6520 0.6922 0.6181 0.5744 0.5833
0.5387 0.5913 0.6520 0.6386 0.5994 0.5521
0.5815 0.5895 0.5253 0.5092 0.4958 0.3834
0.4271 0.5752 0.5190 0.5083 0.5654 0.5583
0.5752 0.5708 0.5288 0.5984 0.6145 0.4869
0.5404 0.5467 0.5208 0.5279 0.4503 0.4887
0.4119 0.4190 0.5699 0.5413 0.5333 0.4770
0.4869 0.5279 0.4886 0.5154 0.5172 0.5832
0.5573 0.5172 0.5636 0.5484 0.5716 0.5609
0.5627 0.5439 0.4761 0.4859 0.4708 0.4324
0.4119 0.4502 0.4948 0.4547 0.3610 0.2619
0.3101 0.3378 0.3262 0.3637 0.3520 0.3315
0.2325 0.2530 0.3110 0.2637 0.2699 0.2271
0.2021 0.2824 0.2441 0.1459 0.1691 0.1182
0.1164 0.1459 0.0442 0.0906 0.2164 0.1780
0.1137 0.1343 0.0995 0.0959 0.1530 0.1851
0.1396 0.0977 0.1432 0.0870 0.0638 0.0754
0.0521 0.0914 0.0771 0.0789 0.1512 0.1476
0.1075 0.1307 0.1199 0.0691 0.0539 0.0878
0.1280 0.1565 0.1199 0.0485 0.0833 0.1360
0.1378 0.1235 0.1217 0.1467 0.1860 0.1458
0.1146 0.0655 0.0012 0.0574 0.0922 0.1413
0.1297 0.0762 0.0387 0.0628 0.1217 0.1020
0.1404 0.1074 0.0521 0.1020 0.1270 0.0788
0.1074 0.1823 0.1172 0.1101 0.1600 0.1636
0.1547 0.1216 0.1689 0.1877 0.1573 0.1395
0.1109 0.1314 0.1778 0.2421 0.1966 0.1457
0.2153 0.1984 0.1618 0.1716 0.1466 0.1055
0.0707 0.1180 0.1323 0.1136 0.1153 0.0440
-0.0337 -0.1327 -0.0658 -0.2023 -0.4228 -0.2532
-0.3764 -0.3951 -0.2675 -0.3701 -0.3496 -0.3603
-0.3478 -0.3612 -0.3817 -0.3889 -0.3657 -0.2265
-0.2095 -0.3005 -0.2791 -0.2979 -0.3701 -0.2640
-0.2791 -0.3541 -0.5219 -0.7021 -0.6459 -0.6352
-0.5683 -0.5424 -0.3755 -0.2729 -0.4558 -0.4032
-0.3514 -0.3443 -0.4380 -0.7066 -0.7548 -0.6272
-0.6602 -0.8048 -0.8779 -0.9056 -0.8690 -0.8690
-0.8958 -0.8815 -0.9288 -0.9538 -0.9734 -0.8414
-0.6460 -0.8458 -0.9378 -0.8414 -0.7673 -0.8003
-0.9895 -0.8423 -0.9056 -1.1457 -1.0449 -0.9940
-1.0743 -1.0966 -1.1600 -1.2037 -1.0984 -1.2224
-1.2448 -1.0931 -1.0609 -0.9860 -1.1145 -1.2474
-1.2037 -1.1948 -1.2421 -1.1743 -1.0815 -1.0074
-0.9003 -1.0645 -1.1850 -1.1752 -1.1502 -1.0592
-1.1252 -1.1234 -1.0699 -1.1565 -0.9941 -0.7522
-0.7986 -0.7594 -0.7995 -0.8691 -0.9405 -1.1654
-1.1360 -1.1395 -0.9914 -0.9218 -1.2091 -1.2154
-1.1931 -1.2502 -1.2752 -1.2181 -1.1476 -1.1520
-1.1904 -1.2725 -1.3457 -1.4055 -1.2957 -1.3859
-1.4260 -1.2172 -1.2065 -1.2163 -1.1753 -1.0129
-0.9495 -1.0298 -1.0084 -1.0138 -1.0075 -0.9816
-1.0530 -1.1137 -1.0807 -1.0905 -1.0914 -1.0557
-1.0566 -1.0397 -1.0718 -1.0647 -1.0290 -1.0941
-1.1253 -1.1485 -1.1744 -1.2235 -1.3475 -1.3699
-1.2440 -1.1325 -1.1280 -1.1298 -1.0816 -1.0879
-1.0370 -0.9603 -1.0165 -1.1771 -1.2753 -1.1682
-1.1593 -1.1504 -1.1102 -1.1932 -1.1620 -1.1013
-1.1084 -1.1611 -1.0585 -1.0603 -1.3324 -1.4458
-1.4056 -1.3173 -1.3423 -1.2887 -1.2468 -1.3164
-1.1308 -1.2209 -1.2147 -0.8738 -0.9398 -0.8818
-0.8417 -1.0050 -0.8684 -0.6802 -0.6248 -0.5677
-0.5972 -0.6748 -0.6034 -0.6873 -0.6213 -0.4312
-0.3652 -0.4294 -0.5704 -0.2108 -0.0921 -0.2885
-0.2501 -0.2519 -0.1903 -0.2073 -0.1082 0.0060
-0.0743 0.1131 0.2300 0.1925 0.2996 0.3844
0.4370 0.4192 0.4941 0.5316 0.4736 0.5824
0.5985 0.6761 0.7315 0.7350 0.9206 0.8680
0.8278 0.9474 0.9688 1.0482 1.0955 1.1544
1.2428 1.1758 1.2088 1.2454 1.0955 1.1473
1.2258 1.2178 1.2499 1.1972 1.2320 1.1892
1.2900 1.4819 1.4025 1.4158 1.3810 1.5425
1.7567 1.7308 1.7933 1.7397 1.7719 1.7362
1.6407 1.6166 1.5889 1.7147 1.7594 1.7290
1.6862 1.7121 1.6085 1.6630 1.8147 1.6978
1.7094 1.6246 1.5550 1.5978 1.5934 1.7138
1.7763 1.7495 1.7540 1.8771 1.7897 1.6157
1.6924 1.5960 1.6478 1.6005 1.6130 1.8039
1.7441 1.8066 1.6478 1.6781 1.7700 1.6192
1.6834 1.7450 1.7388 1.7307 1.7950 1.7807
1.6968 1.7405 1.7486 1.7280 1.6959 1.5558
1.5826 1.6022 1.6022 1.6905 1.7477 1.8485
1.7851 1.6923 1.6290 1.5933 1.6218 1.5495
1.4960 1.5522 1.5460 1.4549 1.4514 1.3969
1.2943 1.3844 1.3818 1.3175 1.3782 1.3005
1.3282 1.3121 1.2140 1.2452 1.1926 1.2229
1.2229 1.1354 1.1078 1.1185 1.1479 1.1747
1.1247 0.9579 0.9846 1.0649 0.9311 0.8552
0.8356 0.7812 0.8008 0.7410 0.7115 0.7722
0.6821 0.6696 0.7044 0.6839 0.6598 0.6446
0.6758 0.6151 0.5518 0.5206 0.5393 0.5018
0.4304 0.4733 0.4331 0.3983 0.3876 0.3519
0.3849 0.3617 0.3331 0.2858 0.2180 0.2394
0.2635 0.2314 0.1663 0.1823 0.1680 0.1181
0.0279 -0.0310 0.0315 -0.0336 -0.0845 -0.0667
-0.0515 -0.1015 -0.1184 -0.0122 -0.0140 -0.0355
-0.0524 -0.0756 -0.0917 -0.1238 -0.1336 -0.1925
-0.1836 -0.1827 -0.2113 -0.1550 -0.1952 -0.2122
-0.2407 -0.3532 -0.3648 -0.4103 -0.4594 -0.4808
-0.4968 -0.4781 -0.5192 -0.5727 -0.5923 -0.5879
-0.5879 -0.6967 -0.7708 -0.7075 -0.7315 -0.7476
-0.8038 -0.9011 -0.9207 -1.0028 -0.9707 -0.9306
-0.9966 -1.0020 -1.0260 -1.0832 -1.0921 -1.0635
-1.0858 -1.1590 -1.1813 -1.1706 -1.1733 -1.2402
-1.3116 -1.2643 -1.2447 -1.2286 -1.2813 -1.3518
-1.3232 -1.3679 -1.3295 -1.3777 -1.4357 -1.3598
-1.4223 -1.3661 -1.3304 -1.4250 -1.4660 -1.4857
-1.4161 -1.4527 -1.5026 -1.4678 -1.4411 -1.4045
-1.4580 -1.4714 -1.4553 -1.4214 -1.3822 -1.4545
-1.4607 -1.4286 -1.4268 -1.4125 -1.4322 -1.4393
-1.4224 -1.3849 -1.4054 -1.3840 -1.3367 -1.3447
-1.3287 -1.3581 -1.3421 -1.3260 -1.3082 -1.3037
-1.3314 -1.2716 -1.2618 -1.2395 -1.2011 -1.2064
-1.1413 -1.0797 -1.0949 -1.0788 -1.0494 -1.0601
-0.9932 -0.9611 -0.9120 -0.8692 -0.9075 -0.8397
-0.8576 -0.8353 -0.7808 -0.8040 -0.7532 -0.7237
-0.7246 -0.7460 -0.6461 -0.6202 -0.6104 -0.5640
-0.6131 -0.5024 -0.5024 -0.5203 -0.4507 -0.4355
-0.3784 -0.3980 -0.3195 -0.2919 -0.3079 -0.2348
-0.2749 -0.2410 -0.1919 -0.1910 -0.1910 -0.1687
-0.1589 -0.1589 -0.0759 -0.1063 -0.1018 -0.0019
0.0124 -0.0099 -0.0278 -0.0037 0.0338 0.0356
0.0847 0.1114 0.0276 0.0891 0.1694 0.1944
0.2569 0.1730 0.1498 0.1650 0.1453 0.2042
0.1632 0.1998 0.2988 0.2292 0.2158 0.2256
0.2042 0.2560 0.2194 0.2042 0.2479 0.2649
0.2577 0.1819 0.2122 0.1872 0.1399 0.1694
0.1515 0.1631 0.1301 0.1488 0.1979 0.2167
0.2220 0.2381 0.2283 0.1631 0.1917 0.1809
0.1265 0.1113 0.1328 0.1863 0.1444 0.1292
0.2157 0.1997 0.1675 0.2095 0.1961 0.1060
0.1229 0.1854 0.0658 0.0328 0.0462 0.0096
0.0149 0.0096 0.0221 -0.0136 -0.0333 -0.0029
-0.0011 -0.0583 -0.0511 -0.0038 0.0096 0.0096
-0.0485 -0.0690 -0.0145 -0.0056 -0.0315 -0.0003
-0.0217 -0.0690 -0.0690 -0.0494 -0.0503 -0.0690
-0.0690 -0.0976 -0.1190 -0.1083 -0.1056 -0.1270
-0.1011 -0.0994 -0.1565 -0.2082 -0.2305 -0.1815
-0.1788 -0.2288 -0.1949 -0.1824 -0.2984 -0.3983
-0.3582 -0.2127 -0.2136 -0.2520 -0.2056 -0.3510
-0.3858 -0.2779 -0.3020 -0.3038 -0.2663 -0.2547
-0.3225 -0.3635 -0.3234 -0.3207 -0.2984 -0.3047
-0.3582 -0.3323 -0.3225 -0.3350 -0.2859 -0.3172
-0.3796 -0.4011 -0.3698 -0.2859 -0.3216 -0.3386
-0.2744 -0.3002 -0.3217 -0.2788 -0.2529 -0.2726
-0.2744 -0.2583 -0.2788 -0.2422 -0.2217 -0.2315
-0.2342 -0.2824 -0.2333 -0.2128 -0.2512 -0.1968
-0.1655 -0.2048 -0.1736 -0.1450 -0.1736 -0.1575
-0.1406 -0.0843 -0.0834 -0.1254 -0.0629 -0.0727
-0.0754 -0.0469 -0.0736 -0.0469 -0.0174 0.0111
0.0093 0.0602 0.1236 0.1030 0.0923 0.0941
0.1030 0.0798 0.1137 0.1164 0.0968 0.1780
0.2253 0.1958 0.2297 0.2841 0.2297 0.2716
0.2904 0.2940 0.3823 0.3430 0.3680 0.4028
0.4358 0.4929 0.4653 0.4688 0.5027 0.5661
0.5839 0.5839 0.5848 0.6009 0.6393 0.6714
0.7205 0.6901 0.7276 0.7972 0.8168 0.8240
0.7793 0.8445 0.8837 0.9391 0.9649 0.9337
0.9953 0.8802 0.8900 0.9962 0.9881 1.0194
1.0390 1.0818 1.0354 1.0658 1.1496 1.1434
1.2139 1.2264 1.2371 1.3022 1.2808 1.2790
1.3076 1.2808 1.2835 1.3093 1.3129 1.3343
1.3441 1.3343 1.3182 1.3263 1.3191 1.3343
1.4235 1.4200 1.3932 1.4253 1.3789 1.3628
1.4173 1.3789 1.3477 1.3744 1.3914 1.4387
1.4262 1.4271 1.4110 1.3146 1.3030 1.3111
1.3039 1.2914 1.3235 1.2397 1.1272 1.1486
0.9273 0.8095 1.0041 0.9032 0.7426 0.8452
0.8372 0.8095 0.7676 0.6676 0.8827 1.0960
0.9639 0.9550 0.9933 0.8461 0.8961 0.9344
0.9683 1.1191 1.1075 1.0442 1.0397 1.0790
1.0799 1.0665 1.0727 1.0388 1.0210 1.0656
1.0772 1.0575 1.0388 0.9763 0.9522 0.9540
0.8996 0.9380 0.8684 0.7354 0.8344 0.8362
0.8585 0.8514 0.7755 0.8344 0.8264 0.8139
0.7381 0.7175 0.7443 0.6524 0.6675 0.6461
0.5703 0.6488 0.7139 0.6961 0.6666 0.6657
0.6898 0.7113 0.7175 0.7121 0.6970 0.6327
0.6265 0.6523 0.6256 0.5997 0.6211 0.5997
0.4944 0.4560 0.4801 0.5345 0.4257 0.2981
0.2865 0.2873 0.4703 0.4712 0.3721 0.4649
0.4747 0.4132 0.3685 0.4185 0.4479 0.4319
