Archivo de aceleración parte de la Red Nacional de Acelerógrafos (RENAC) Ecuador
          
Evento: 201604162358
Fecha del evento UTM (aammdd):                  2016    4   16
Hora del registro UTM (hhmmss): 23   59 7.00
Estación:                                      ALOR 
Componente:                                        N
Frecuencia de muestreo (Hz):            1.000000e+02
Unidades: cm/s^2
_____________________________________________
-0.6274 -0.9893 -1.0299 -0.5914 -0.0274 0.0704
-0.3828 -0.7964 -0.6487 -0.1595 0.2005 0.2901
0.2310 0.2402 0.2827 0.1811 0.0501 0.1858
0.4442 0.3916 0.0270 -0.2352 -0.1779 -0.1207
-0.3672 -0.6653 -0.6367 -0.5370 -0.6201 -0.5906
-0.3561 -0.2177 -0.3090 -0.4087 -0.3146 -0.1004
-0.1318 -0.4503 -0.4798 -0.0137 0.4571 0.4811
0.2069 0.0740 0.2171 0.3869 0.3749 0.5642
1.0885 1.4152 1.2805 0.8798 0.6832 0.7885
0.9943 1.2888 1.4558 1.1697 0.4340 -0.1642
0.0620 0.9952 1.6866 1.4106 0.5577 -0.0562
-0.1586 0.1340 0.7312 1.4383 1.7816 1.4512
0.7552 0.3370 0.3149 0.2623 -0.0331 -0.4688
-0.8233 -1.0042 -1.0910 -1.0817 -0.8510 -0.5796
-0.7439 -1.2774 -1.5211 -1.0910 -0.4245 -0.1781
-0.3719 -0.5473 -0.5307 -0.5639 -0.6433 -0.6202
-0.5732 -0.6092 -0.6876 -0.6867 -0.5649 -0.4624
-0.5575 -0.5722 -0.1292 0.5724 1.1640 1.4059
1.3920 1.4437 1.5379 1.5416 1.7040 2.1120
2.0622 1.0016 -0.3360 -0.5741 0.4431 1.4502
1.4502 0.5576 -0.4292 -0.9480 -1.0163 -0.9535
-0.8649 -0.6877 -0.6738 -0.9877 -1.3911 -1.4981
-1.2314 -0.9655 -1.0209 -1.3302 -1.5129 -1.1649
-0.3785 0.2880 0.6600 0.9923 1.3218 1.4575
1.2710 0.6406 -0.1265 -0.2502 0.3747 1.1344
1.4492 1.1815 0.6904 0.2972 0.2187 0.4938
0.8418 0.8732 0.2870 -0.6379 -1.2388 -1.1659
-0.5133 0.2621 0.4966 -0.0130 -0.7939 -1.1844
-0.6462 0.5999 1.5756 1.4833 0.4319 -0.6213
-0.8715 -0.2050 0.9627 1.8036 1.5424 0.4725
-0.1884 0.0322 0.3470 0.1254 -0.2669 -0.3103
-0.1736 -0.3647 -0.7829 -0.9739 -1.0515 -1.3395
-1.7244 -1.9506 -1.9395 -1.9432 -2.0456 -1.6081
-0.7654 -0.7524 -1.8712 -2.9115 -2.6964 -1.5721
-0.7829 -0.7746 -0.9712 -0.8355 -0.4017 0.1605
0.9765 1.9586 2.4968 2.0906 1.0448 0.2001
-0.1294 -0.2835 -0.4691 -0.5079 -0.3639 -0.3731
-0.8439 -1.6285 -2.3171 -2.6503 -2.3716 -1.4891
-0.5753 -0.2780 -0.7830 -1.4679 -1.5399 -0.7950
0.5841 1.9355 2.4496 1.9567 0.7973 -0.2374
-0.3611 0.3256 1.3115 2.1330 2.3822 2.0388
1.3835 0.7493 0.4253 0.3321 0.1170 -0.0252
0.3893 1.1693 1.7001 1.5358 0.8490 0.4548
0.7474 1.3345 1.8228 1.9022 1.3825 0.5739
0.1373 0.4899 1.2514 1.7443 1.7407 1.5237
1.5145 1.7166 1.6003 0.6422 -0.6833 -1.3046
-1.3138 -1.5677 -2.1086 -2.2987 -1.8418 -1.4190
-1.8501 -2.6034 -2.4640 -1.4772 -0.9040 -1.3923
-2.1898 -2.1944 -1.3794 -0.7480 -0.7932 -0.9769
-0.6262 0.2305 1.1406 1.7683 1.6935 1.0917
0.8812 1.5754 2.7726 3.3643 2.8427 1.7701
1.0021 1.1267 1.7950 2.3184 2.6193 2.8723
2.9775 2.5944 1.8283 1.3907 1.4747 1.6492
1.8061 1.8735 1.7424 1.5716 1.5624 1.7239
1.7147 1.3842 0.9772 0.6098 0.2212 -0.2173
-0.5348 -0.5893 -0.5570 -0.5570 -0.5201 -0.4527
-0.6428 -1.2152 -1.7533 -1.9019 -1.6472 -1.2281
-0.8755 -0.5699 -0.3401 -0.4656 -1.0241 -1.5613
-1.7459 -1.8226 -2.0358 -2.3081 -2.5232 -2.6136
-2.7327 -3.0346 -3.2903 -3.2773 -3.0300 -2.5564
-1.7681 -0.9134 -0.4426 -0.5091 -0.7897 -0.5912
0.3568 1.4386 2.0165 2.2601 2.6063 3.1444
3.5774 3.5755 3.3503 3.2257 3.0346 2.5666
1.9167 1.2964 0.9632 0.9844 1.0251 0.8044
0.4001 0.1971 0.5229 1.1552 1.8650 2.5158
2.8066 2.7263 2.3644 1.8743 1.5918 1.4783
1.2281 0.7481 0.0918 -0.5322 -1.0916 -1.8780
-2.7716 -3.2063 -2.9627 -2.4947 -2.4245 -2.9257
-3.6679 -4.2171 -4.4774 -4.5688 -4.5430 -4.6344
-5.2454 -6.0753 -6.2479 -5.7559 -5.3424 -5.3008
-5.1338 -4.2319 -2.7670 -1.2809 -0.1261 0.7351
1.6628 2.6477 3.3760 3.8569 4.3351 4.7348
4.5751 3.6520 2.3828 1.3582 0.9834 1.2917
1.9111 2.4732 2.6874 2.4492 1.9203 1.2779
0.9576 1.1246 1.2982 1.2492 1.0877 0.8671
0.5228 0.0446 -0.2785 -0.1511 0.4249 1.1348
1.5621 1.6415 1.6664 1.8206 2.2794 3.1387
3.8430 3.6917 2.6440 1.3406 0.4969 0.1129
-0.4991 -1.7489 -3.0219 -3.6089 -3.6662 -3.5812
-3.3782 -3.0145 -2.6619 -2.6840 -3.1723 -3.4945
-3.0994 -2.2336 -1.3853 -0.6810 -0.1594 0.1092
0.2458 0.3021 0.3030 0.2836 0.2864 0.4636
0.9815 1.8898 2.8174 3.0824 2.5867 2.1658
2.2950 2.5562 2.3614 1.4208 -0.0995 -1.8459
-3.3395 -4.1988 -4.4961 -4.4758 -4.4490 -4.5025
-4.0059 -2.5466 -0.8333 0.0925 0.2753 0.8863
2.3466 3.6934 3.9463 3.1562 2.3512 2.2331
2.4943 2.6282 2.5331 2.3872 2.2238 2.0097
1.9617 2.2552 2.6161 2.7288 2.6189 2.4417
2.3531 2.4177 2.7527 3.2051 2.9872 1.7475
0.2004 -0.7263 -0.7725 -0.4152 -0.3036 -0.6091
-0.9894 -1.3457 -1.9300 -2.6556 -3.3534 -3.9322
-4.3217 -4.6162 -4.7103 -4.4417 -3.9257 -3.3793
-2.8374 -2.1700 -1.3919 -0.5279 0.5207 1.7290
2.8016 3.4533 3.8059 4.0524 4.1530 3.9167
3.3905 3.0222 2.9004 2.5348 1.4188 -0.2796
-1.9079 -3.1190 -3.8445 -4.1473 -4.2110 -4.3402
-4.8027 -5.5107 -6.0673 -5.9519 -5.0630 -3.8307
-2.6667 -1.6541 -0.5972 0.6028 1.8037 2.9243
4.0237 4.9615 5.5025 5.6123 5.5015 5.3889
5.2449 5.0178 4.6754 4.1206 3.3175 2.4055
1.5129 0.6120 -0.1689 -0.7883 -1.3828 -1.7160
-1.6643 -1.5600 -1.5332 -1.5148 -1.4363 -1.3071
-1.2535 -1.2572 -1.2222 -1.0772 -0.7957 -0.6323
-0.6185 -0.3323 0.2271 0.5409 0.2566 -0.3923
-0.8373 -0.9397 -0.9979 -1.2065 -1.4419 -1.5610
-1.5693 -1.6025 -1.9754 -2.7434 -3.3619 -3.2456
-2.4517 -1.5997 -1.2157 -1.0477 -0.6019 -0.0684
0.1725 0.2252 0.3452 0.4052 0.0313 -0.6158
-0.8585 -0.3462 0.6064 1.3891 1.8414 2.0177
1.8128 1.6817 2.2854 3.4725 4.3882 4.5091
4.3670 4.5746 4.8885 4.7094 3.8214 2.6768
1.7916 1.1814 0.7457 0.5343 0.5362 0.4817
-0.0878 -1.1743 -2.0189 -2.2413 -2.3041 -2.5958
-2.9050 -2.7915 -2.4878 -2.4943 -2.6641 -2.4869
-1.6792 -0.5669 0.2897 0.7845 1.2026 1.6318
1.7989 1.4251 0.6534 -0.0325 -0.4719 -0.8983
-1.3931 -1.7457 -1.9811 -2.2137 -2.0799 -1.3949
-0.8586 -1.1134 -1.7956 -2.1989 -1.9876 -1.3839
-0.9519 -1.1051 -1.8546 -2.7925 -3.3657 -3.2291
-2.6651 -2.2867 -2.3051 -2.3014 -1.7651 -0.8301
0.1770 1.1352 1.7084 1.7056 1.4748 1.4435
1.6484 1.6235 1.1545 0.6348 0.3773 0.4410
0.6459 0.6911 0.6108 0.7438 1.2357 1.7674
2.0093 1.9890 1.9428 2.0923 2.3600 2.6526
2.8686 2.7570 2.3822 2.0323 1.8810 1.7619
1.3336 0.5979 -0.0944 -0.3834 -0.3012 -0.2578
-0.7175 -1.6637 -2.2830 -2.0772 -1.5391 -1.3618
-1.7818 -2.3800 -2.6338 -2.3994 -1.7264 -0.9345
-0.4286 -0.3206 -0.3982 -0.4378 -0.5348 -0.8366
-1.1726 -1.2345 -1.1052 -1.1255 -1.4699 -2.0163
-2.4142 -2.6689 -3.0455 -3.5440 -3.7397 -3.1129
-1.7791 -0.3973 0.4233 0.7584 1.2181 2.0341
2.9018 3.4215 3.5322 3.4713 3.3430 2.9609
2.4975 2.4209 2.5972 2.4993 2.0368 1.7128
1.7885 2.0221 2.0876 1.8005 1.3658 1.0048
0.8904 1.0519 1.0934 0.7990 0.3458 -0.1389
-0.5589 -0.6890 -0.4712 -0.1463 0.0817 0.1177
-0.1333 -0.5672 -0.9272 -1.0398 -1.0804 -1.4090
-1.8826 -2.1493 -2.1493 -1.9767 -1.7026 -1.2373
-0.6854 -0.3143 -0.1721 -0.1398 -0.1454 -0.3724
-0.8700 -1.2789 -1.3195 -1.2152 -1.3924 -1.8604
-2.3737 -2.8989 -3.4601 -3.6346 -2.9220 -1.6131
-0.5645 -0.3392 -0.6309 -0.5266 0.3161 1.2771
1.7727 1.9989 2.5813 3.4333 3.8441 3.7500
3.5303 3.1232 2.3533 1.5327 1.1349 1.1441
1.0213 0.4029 -0.3596 -0.8322 -1.2236 -1.6445
-1.7027 -1.2965 -0.7777 -0.5544 -0.7676 -1.1996
-1.6085 -1.8430 -1.7839 -1.4424 -1.2282 -1.6824
-2.6193 -3.2987 -3.1796 -2.4024 -1.6085 -1.1608
-0.9255 -0.6799 -0.5101 -0.6282 -0.7178 -0.3015
0.3041 0.5191 0.3742 0.1951 0.1527 0.2634
0.3400 0.3659 0.7499 1.5853 2.5009 3.1000
3.2136 3.1434 3.1600 3.1720 3.0917 2.9265
2.6468 1.9812 0.8283 -0.4704 -1.6344 -2.5224
-3.2784 -4.1720 -5.0074 -5.2944 -4.9077 -4.3132
-3.8009 -3.2904 -2.6785 -1.7923 -0.7575 0.1286
0.7618 0.9732 0.7821 0.5966 0.5209 0.1895
-0.6449 -1.6714 -2.2114 -2.0702 -1.7702 -1.7914
-2.1569 -2.5733 -2.8068 -2.8705 -2.7939 -2.4800
-1.9197 -1.3816 -1.2182 -1.3345 -1.1591 -0.4622
0.5116 1.3415 1.6165 1.4153 1.3461 1.9341
2.9190 3.5688 3.5578 3.1544 2.7214 2.2581
1.6978 1.2307 1.0138 0.9076 0.7553 0.7341
1.2094 1.9728 2.3531 2.2433 2.0900 2.2996
2.8968 3.5346 3.9131 3.8854 3.2476 2.0199
0.7931 0.0980 -0.2370 -0.7198 -1.5044 -2.1958
-2.3980 -2.3361 -2.5835 -3.3137 -3.9312 -3.6118
-2.3767 -0.9644 0.1248 0.7377 0.7894 0.3555
-0.2620 -0.7023 -0.7448 -0.6783 -0.9571 -1.5220
-1.9263 -1.8626 -1.5866 -1.2626 -0.5851 0.2697
0.8124 0.9140 0.6518 0.3038 0.0610 -0.1199
-0.2990 -0.5805 -1.0005 -1.4343 -1.8073 -2.1165
-2.2402 -2.1405 -1.9180 -1.7583 -1.6337 -1.1777
-0.3101 0.7487 1.7050 2.3068 2.6198 2.8487
3.0130 3.1025 2.9871 2.4527 1.6505 0.9979
0.7201 0.5825 0.3047 -0.1042 -0.4809 -0.6285
-0.6230 -0.7744 -1.2147 -1.6855 -1.6670 -1.2036
-0.7403 -0.1476 0.7597 1.8148 2.6585 2.9179
2.6853 2.2154 1.6376 1.0108 0.3665 -0.3000
-1.1280 -1.8230 -2.0510 -2.1637 -2.3427 -2.4590
-2.3944 -2.0621 -1.8304 -1.9800 -2.2366 -2.2846
-2.1028 -1.9634 -1.9828 -1.9874 -1.7917 -1.5221
-1.5175 -1.7077 -1.4926 -0.5668 0.3886 0.7154
0.6406 0.7957 1.4474 2.3593 3.2289 3.7855
4.0938 4.2295 4.0319 3.7061 3.4486 3.0766
2.6344 2.6741 3.6082 4.8738 5.3196 4.4990
3.0719 2.0704 1.8562 1.9024 1.7196 1.2415
0.5547 -0.4191 -1.8794 -3.4496 -4.4317 -4.6930
-4.7317 -4.9062 -4.9311 -4.3893 -3.4801 -2.8487
-2.4933 -2.0124 -1.2850 -0.4072 0.4061 0.9165
0.9165 0.5122 0.1291 0.2777 0.8473 0.9783
0.2713 -0.7700 -1.3764 -1.3127 -1.0460 -0.9906
-1.0312 -0.7561 0.0959 1.3725 2.6482 3.5371
3.8629 3.5500 2.8198 2.0519 1.3503 0.6275
-0.1534 -0.8097 -1.2334 -1.5140 -1.7143 -1.7817
-1.6995 -1.6986 -1.7392 -1.5297 -1.0442 -0.4322
0.0709 0.4392 0.9109 1.3974 1.5294 1.3807
1.3364 1.4232 1.2469 0.6229 -0.1756 -0.9325
-1.6359 -2.3660 -3.1996 -4.0322 -4.6654 -5.0042
-5.0143 -4.7162 -4.2177 -3.7322 -3.4313 -3.1894
-2.7196 -1.8999 -1.0285 -0.4221 -0.0187 0.3053
0.7290 1.4859 2.5631 3.5674 4.0225 3.8573
3.4281 3.0764 2.8419 2.4136 1.5939 0.7327
0.0348 -0.7036 -1.6396 -2.8119 -4.0470 -5.1132
-5.9550 -6.3519 -6.0990 -5.5405 -4.9609 -4.2344
-3.1193 -1.5169 0.1474 1.5209 2.7136 3.7732
4.7314 5.6581 6.5258 7.2421 7.4009 6.5840
5.1458 3.8600 2.9323 2.0092 0.8249 -0.5495
-1.8861 -3.1544 -4.2483 -4.7061 -4.3692 -3.4674
-2.3818 -1.5252 -0.7591 0.3901 1.6981 2.4744
2.6738 2.7320 2.8077 2.7412 2.3950 1.7415
0.7824 -0.3548 -1.4422 -2.1493 -2.2674 -2.1253
-2.2203 -2.6523 -3.1610 -3.3206 -3.0834 -2.9182
-3.0077 -3.1582 -3.1111 -2.6588 -1.7524 -0.5090
0.7676 1.9427 3.0670 4.1507 5.1734 6.0513
6.4907 6.1676 5.2122 4.0740 3.1279 2.4550
1.9242 1.4405 1.0048 0.6651 0.4777 0.3753
0.1944 -0.0955 -0.3586 -0.4481 -0.4333 -0.4804
-0.5358 -0.5007 -0.5183 -0.6973 -0.7269 -0.4029
-0.1066 -0.1269 -0.4112 -0.6835 -0.6900 -0.5737
-0.5063 -0.6807 -1.3398 -2.3958 -3.3558 -3.8690
-4.0112 -3.9955 -3.9494 -3.7223 -3.3291 -2.8952
-2.3608 -1.7008 -0.7417 0.4851 1.3398 1.3721
0.8497 0.2940 0.0604 0.1066 0.2349 0.2810
0.1186 -0.0697 -0.1796 -0.2553 -0.2202 -0.0393
0.2644 0.5746 0.7850 0.7961 0.5607 0.2912
0.1158 0.0392 0.2958 0.8561 1.2262 1.0942
0.5035 -0.3614 -1.2559 -1.9565 -2.2925 -2.2334
-1.8051 -1.0962 -0.3873 0.1702 0.4656 0.6105
0.9853 1.5650 2.0514 2.0957 1.7450 1.4514
1.2567 0.9419 0.4056 -0.2775 -0.9061 -1.5458
-2.3442 -3.2212 -3.8950 -4.1341 -3.9689 -3.6735
-3.5996 -3.6172 -3.5600 -3.5683 -3.6550 -3.7040
-3.3440 -2.4126 -1.4387 -1.0031 -0.9744 -0.7991
-0.2221 0.3539 0.5126 0.5431 0.7711 1.2289
1.7846 2.2397 2.7132 3.3354 3.9317 4.3526
4.7827 5.2812 5.4723 5.1621 4.5944 4.1541
3.8781 3.2873 2.0790 0.6160 -0.5185 -1.3677
-2.3951 -3.5185 -4.2569 -4.4554 -4.3880 -4.3114
-4.2154 -3.9283 -3.2683 -2.3203 -1.3317 -0.3514
0.4913 0.9030 0.9298 0.9095 1.0249 1.0525
0.7082 0.1590 -0.2610 -0.3339 -0.1576 0.0436
0.2282 0.3953 0.5836 0.6371 0.5033 0.5476
0.9344 1.5777 2.3264 2.9679 3.3011 3.2596
2.9734 2.7639 2.9743 3.5891 4.1411 4.1014
3.5974 3.2568 3.3085 3.3989 3.1229 2.4602
1.6359 0.9639 0.7700 1.1088 1.5574 1.6257
1.2362 0.5199 -0.3977 -1.3549 -2.1137 -2.6047
-2.9638 -3.2638 -3.5961 -3.8814 -3.8731 -3.4798
-2.8706 -2.4672 -2.3029 -1.9762 -1.3226 -0.4863
0.2364 0.6131 0.5494 0.1349 -0.2694 -0.3746
-0.3968 -0.7217 -1.2377 -1.4390 -0.9202 0.0897
0.8346 0.8318 0.3130 -0.0645 0.0869 0.7026
1.6792 2.8321 3.6804 4.0302 4.3515 5.0290
5.6364 5.3659 4.2970 3.4182 3.2641 3.3721
3.1090 2.5376 2.0198 1.4013 0.1468 -1.4842
-2.5467 -2.7627 -2.5245 -2.4285 -2.5033 -2.2319
-1.7196 -1.3255 -1.0079 -0.5492 -0.0249 0.1145
-0.2621 -0.7670 -1.0246 -1.1492 -1.5073 -2.0289
-2.2864 -2.1793 -1.9901 -1.8350 -1.5877 -1.0772
-0.3424 0.3554 0.9729 1.4797 1.7308 1.7769
1.7566 1.7612 1.8138 1.7354 1.1935 0.0452
-1.4409 -2.6908 -3.2732 -3.3766 -3.3277 -3.1061
-2.6954 -2.1600 -1.7188 -1.4899 -1.1936 -0.5991
0.2834 1.2387 2.0621 2.6575 2.9307 2.9233
2.9418 3.3507 3.8962 3.8676 2.9409 1.5332
0.4596 -0.0416 -0.4727 -1.2591 -2.3936 -3.5954
-4.6302 -5.3696 -5.7046 -5.5311 -4.8831 -4.0957
-3.3647 -2.6493 -1.8665 -0.8659 0.1495 0.6802
0.4753 0.0987 0.3387 1.0707 1.6005 1.5544
1.0439 0.2916 -0.3490 -0.5503 -0.3241 0.1744
0.6193 0.7651 0.7716 0.8685 1.0263 1.1805
1.4454 1.9974 2.9066 3.7475 3.9165 3.3774
2.5319 1.7297 1.0863 0.5094 -0.0795 -0.7118
-1.4014 -2.0660 -2.5921 -2.8626 -2.8958 -2.8377
-2.7841 -2.7038 -2.6909 -2.9632 -3.2448 -3.0666
-2.6198 -2.6448 -3.2558 -3.6795 -3.4128 -2.7029
-2.1011 -1.7466 -1.2389 -0.3140 0.8490 2.0361
3.0136 3.4272 3.3173 3.1807 3.4724 3.9884
3.8481 2.7109 1.3983 0.7032 0.6358 0.8638
0.9699 0.7299 0.1429 -0.5162 -0.7525 -0.6399
-0.7091 -1.0839 -1.4808 -1.6304 -1.5131 -1.5122
-1.7282 -1.6008 -1.0664 -0.6990 -0.7175 -0.7655
-0.4664 -0.0612 -0.0289 -0.4110 -0.9482 -1.3775
-1.6701 -1.7449 -1.2676 -0.2467 0.7354 1.2865
1.7286 2.3803 3.1492 3.7096 3.8960 4.0197
4.3834 4.8532 5.0628 4.9483 4.6557 4.3806
4.3825 4.5181 4.3723 3.7594 2.8058 1.8468
1.2357 1.0935 1.1563 1.0178 0.5018 -0.3382
-1.1985 -1.8391 -2.1566 -2.0218 -1.7569 -1.9425
-2.6652 -3.5625 -4.3794 -4.9323 -4.9831 -4.4135
-3.3280 -2.4465 -2.4022 -2.7086 -2.4779 -1.3056
0.4381 1.7747 2.3129 2.5649 2.9138 3.3449
3.8747 4.3805 4.7211 5.0138 5.3221 5.5879
5.6128 5.3405 5.1088 5.0996 5.1153 4.9261
4.3270 3.2211 2.0119 1.1331 0.3522 -0.4222
-0.9179 -1.3222 -1.8253 -2.2287 -2.2278 -1.6582
-0.9022 -0.4435 -0.1509 0.2322 0.4602 0.4436
0.5174 0.8590 1.4682 1.9343 1.9371 1.8780
2.0876 2.4946 2.6783 2.3636 1.9620 1.5337
0.5626 -0.7287 -1.5854 -1.9454 -2.3312 -3.0660
-3.8220 -4.1792 -4.4210 -4.6657 -4.2632 -3.0835
-1.8457 -1.2042 -1.2217 -1.4174 -1.2762 -0.5183
0.4140 0.6826 0.3918 0.3032 0.7158 1.1718
1.0186 0.4620 0.3706 0.8063 1.0980 1.0767
1.1746 1.6776 2.2629 2.5315 2.5462 2.4493
2.1973 1.6546 1.0038 0.8007 1.1635 1.3518
0.7204 -0.3310 -1.0233 -1.0879 -1.0814 -1.6907
-2.7928 -3.7925 -4.3870 -4.7257 -4.8624 -4.5882
-3.9882 -3.6338 -3.8147 -3.9411 -3.3227 -2.1679
-1.3575 -1.3686 -1.7590 -1.8430 -1.5107 -1.1175
-0.7353 -0.1381 0.6188 1.3213 1.8114 2.1853
2.6283 2.9625 2.9902 2.8028 2.7963 3.2265
3.6779 3.5791 2.8637 2.0689 1.7468 1.8243
2.0089 2.1437 2.0920 1.8335 1.4440 1.1652
1.2381 1.3692 1.1080 0.5892 0.2791 0.4185
0.5800 0.1037 -0.7520 -1.1988 -0.9302 -0.4049
-0.1326 -0.0939 -0.2111 -0.3126 -0.3016 -0.2831
-0.2166 -0.0948 0.0141 0.1258 0.3584 0.7332
0.9695 0.8421 0.4839 0.1535 0.0538 0.2375
0.6409 1.0092 0.9981 0.5375 -0.1161 -0.5794
-0.6099 -0.2508 0.3076 0.9076 1.3359 1.4504
1.4891 1.7319 2.1094 2.3559 2.4399 2.6771
3.1904 3.7802 4.2473 4.4346 4.1319 3.2550
2.1159 1.1291 0.2771 -0.7059 -1.7241 -2.6472
-3.5075 -4.2118 -4.6973 -4.8515 -4.6807 -4.5386
-4.5256 -4.3299 -3.7992 -2.9980 -1.9632 -0.6644
0.7626 1.7522 1.8020 1.0912 0.3491 0.3094
0.9685 1.8048 2.5506 3.2208 3.7275 3.8051
3.5032 3.0075 2.3014 1.4687 0.6011 -0.1568
-0.6552 -1.2423 -2.2328 -3.2195 -3.6017 -3.2131
-2.5780 -2.3842 -2.6039 -2.6989 -2.3436 -1.7094
-1.1445 -0.5417 0.3398 1.0783 1.1484 0.8872
1.0072 1.7632 2.7370 3.2299 3.1939 3.0582
2.8330 2.1795 1.0755 -0.0027 -0.4965 -0.3802
-0.3645 -0.8113 -1.3347 -1.7371 -2.1442 -2.6842
-3.1642 -3.1384 -2.6602 -2.2485 -2.1830 -2.3695
-2.5458 -2.4618 -1.9606 -1.0956 -0.2584 0.1708
0.1034 -0.2833 -0.5916 -0.5040 -0.0397 0.5243
1.0505 1.5148 1.7668 1.6699 1.2517 0.8206
0.5760 0.2954 -0.1966 -0.9387 -1.7658 -2.3409
-2.5181 -2.2292 -1.4991 -0.6185 0.1163 0.8788
2.0206 3.4514 4.6846 5.2975 5.4120 5.3852
5.1480 4.3901 3.1080 1.6532 0.3655 -0.7828
-1.9302 -2.9797 -3.8714 -4.5646 -4.9957 -5.1775
-5.2422 -5.4969 -5.9206 -5.9788 -5.2542 -4.0200
-2.9557 -2.2634 -1.6699 -0.9139 0.1412 1.1999
1.7778 1.7981 1.3218 0.5049 -0.3416 -0.9333
-1.1013 -0.8124 -0.2308 0.3073 0.6008 0.6802
0.7495 0.8538 0.8621 0.8778 1.1418 1.8156
2.6990 3.2703 3.5020 3.7208 4.0199 4.4002
4.6540 4.6660 4.5128 4.2811 4.0919 3.9368
3.7356 3.3442 2.8069 2.2919 1.9642 1.8137
1.3152 0.2177 -1.1706 -2.6263 -4.1263 -5.5044
-6.4672 -7.0053 -7.4973 -8.3087 -9.3075 -10.1835
-10.7964 -11.0327 -10.8379 -10.3829 -10.0773 -10.0801
-9.9333 -9.0389 -7.5195 -6.1257 -5.3060 -5.0605
-5.1121 -5.0845 -4.7752 -4.1088 -3.1839 -2.2672
-1.6700 -1.4319 -1.3045 -1.0996 -0.7267 -0.2799
-0.0620 -0.2402 -0.4996 -0.5107 -0.3694 -0.2116
-0.1497 -0.2485 -0.5799 -1.3571 -2.3384 -2.8636
-2.7787 -2.7021 -3.2291 -4.1670 -4.8528 -5.1085
-5.2867 -5.4777 -5.4897 -5.2544 -4.8473 -4.1790
-3.0048 -1.4495 0.0708 1.2219 2.1514 3.2056
4.1240 4.3585 3.9090 3.4770 3.5093 3.5600
3.1529 2.4893 2.0240 1.8745 1.8246 1.8283
2.0120 2.1394 1.9446 1.6280 1.5542 1.7305
1.6548 1.0197 0.3209 0.3551 1.1877 2.1246
2.6388 2.8012 2.8944 2.7661 2.2298 1.7304
1.8329 2.4578 2.9821 3.1141 3.2138 3.5618
3.8600 3.6689 2.9858 2.1984 1.4526 0.7197
0.1944 0.0200 0.1649 0.4584 0.8406 1.3769
2.0286 2.6987 3.2396 3.7999 4.7535 6.0236
7.1590 7.7811 7.9648 8.0534 7.9944 7.4904
6.4104 5.0627 3.8784 2.8916 2.0202 1.2679
0.5802 -0.1619 -0.9899 -1.9490 -2.9182 -3.6576
-4.3093 -5.1410 -6.1527 -7.1284 -7.7487 -7.8853
-7.7339 -7.5133 -7.2456 -6.9142 -6.6318 -6.4268
-6.1352 -5.6579 -5.0505 -4.4376 -3.9955 -3.6438
-3.0235 -1.9601 -0.6235 0.5414 1.2189 1.5799
1.9694 2.3829 2.4383 2.0848 1.8134 1.8845
1.9435 1.5411 0.6946 -0.1066 -0.5340 -0.8635
-1.4598 -2.2140 -2.7586 -3.1011 -3.4869 -3.7712
-3.8045 -3.8608 -4.2568 -4.9998 -5.7023 -5.9672
-5.8094 -5.3958 -4.7663 -4.0177 -3.4509 -3.3291
-3.3476 -2.8048 -1.5586 -0.3467 0.3521 0.9235
1.7727 2.7327 3.3641 3.7158 4.2161 4.9490
5.5702 5.8656 6.1038 6.7148 7.8474 9.2043
10.5216 11.7594 12.8588 13.7634 14.4049 14.7418
14.7751 14.4741 14.0394 13.8289 13.8058 13.5557
12.7295 11.4465 10.2862 9.7766 9.8265 10.0591
10.2483 9.9880 9.0926 7.9148 6.9428 6.2708
5.4991 4.3886 3.2809 2.8582 3.2339 3.7535
4.0028 4.3305 5.0477 5.6846 5.6855 5.1308
4.1818 2.6117 0.3483 -2.0572 -3.9347 -5.3101
-6.7418 -8.6129 -10.6778 -12.3559 -13.4738 -14.1052
-14.2113 -13.7092 -12.6615 -11.3175 -9.7917 -7.9557
-5.8141 -3.7935 -2.1837 -0.6763 0.9806 2.3901
3.0686 3.1000 2.8406 2.4575 1.7523 0.5052
-1.0797 -2.5723 -3.5933 -4.0733 -4.1268 -3.8406
-3.3976 -2.7099 -1.4342 0.3492 2.2415 4.0498
5.7962 7.6350 9.4128 10.6765 11.3069 11.5359
11.4879 10.8436 9.2162 6.8319 4.4587 2.6467
1.2648 -0.1133 -1.6650 -3.1308 -4.1158 -4.5948
-4.9262 -5.2936 -5.6315 -5.8456 -5.9804 -6.1272
-6.2130 -6.1096 -5.6887 -5.0536 -4.4481 -4.1149
-4.1435 -4.4823 -5.1459 -5.8586 -6.1650 -5.9296
-5.4247 -5.0103 -4.7647 -4.3853 -3.5703 -2.3398
-0.8878 0.3232 0.9011 0.9463 0.7645 0.6749
0.8761 1.3294 1.8989 2.4731 2.9484 3.2660
3.4866 3.6721 3.8927 4.2333 4.6524 4.9293
4.8176 4.2610 3.3481 2.3023 1.2647 0.1487
-1.0346 -2.0814 -2.8143 -3.3940 -4.1786 -5.2826
-6.5094 -7.5312 -8.1285 -8.3519 -8.3463 -8.1746
-7.9531 -7.6789 -7.1473 -6.3193 -5.3667 -4.4205
-3.3774 -2.1156 -0.7393 0.3878 0.9471 1.0339
0.8622 0.4081 -0.3913 -1.4002 -2.6113 -4.1510
-6.1171 -8.4645 -10.6743 -12.2888 -13.2802 -13.8165
-13.8857 -13.4491 -12.6017 -11.3713 -9.9322 -8.3436
-6.7282 -5.2375 -3.8639 -2.8375 -2.3889 -2.3732
-2.4350 -2.4203 -2.2320 -1.9126 -1.8074 -1.9744
-2.1351 -2.1544 -2.0695 -1.9135 -1.6551 -1.2563
-0.6406 0.2049 1.1594 1.9911 2.4221 2.5089
2.6095 3.0101 3.5243 3.8843 4.2683 4.8664
5.6187 6.2529 6.4892 6.2178 5.5458 4.7796
4.1935 3.8501 3.6821 3.5935 3.5889 3.7356
4.2184 5.3122 6.6858 7.5368 7.4362 6.7624
6.3027 6.2658 6.1402 5.4276 4.1778 2.7322
1.3282 0.0156 -1.1825 -2.1702 -3.0047 -3.8225
-4.5757 -4.9154 -4.5333 -3.5539 -2.3225 -0.9721
0.3848 1.2839 1.4897 1.4371 1.8147 2.6288
3.0922 2.8263 2.3103 2.1350 2.2734 2.3306
2.1091 1.8599 2.0611 2.7571 3.5879 4.2469
4.6051 4.6688 4.6309 4.8035 5.2540 5.7644
6.0026 5.6888 4.8774 3.9700 3.2094 2.4045
1.2035 -0.4654 -2.3844 -4.2537 -5.7527 -6.8549
-7.7023 -8.2801 -8.4869 -8.3410 -7.9995 -7.7087
-7.4651 -6.8208 -5.6697 -4.5408 -3.9805 -4.0303
-4.3451 -4.6931 -5.0254 -5.1897 -5.0715 -4.7531
-4.3516 -3.8697 -3.1146 -1.9100 -0.4119 0.8306
1.4546 1.6373 1.7185 1.9521 2.3785 2.7921
2.9425 2.7072 2.1081 1.4232 1.0096 0.9293
0.9210 0.5712 -0.1987 -1.1052 -1.8639 -2.2747
-2.3901 -2.3919 -2.4067 -2.5036 -2.5396 -2.4409
-2.2922 -2.1325 -2.1649 -2.4630 -2.7686 -2.7556
-2.3772 -2.0569 -1.8492 -1.2058 -0.0270 1.0954
1.6668 1.9299 2.5409 3.6855 4.8182 5.1532
4.5089 3.3726 2.0305 0.3459 -1.7671 -4.0147
-5.8581 -7.0193 -7.5049 -7.3720 -6.8061 -6.1452
-5.5655 -4.9729 -4.0997 -2.8480 -1.5575 -0.7083
-0.6280 -1.2723 -2.3855 -3.6538 -4.7846 -5.6929
-6.4969 -7.4117 -8.4492 -9.2624 -9.5043 -9.1101
-8.2526 -7.2077 -6.0843 -4.7560 -3.0400 -0.9400
1.2199 3.1584 5.0008 6.9818 8.9119 10.4183
11.2463 11.1383 10.1894 8.6977 6.7214 4.3713
1.6492 -1.5031 -4.7560 -7.6157 -9.6991 -10.8622
-11.3329 -11.2739 -10.4625 -8.7594 -6.3354 -3.5219
-0.6687 2.0885 4.7765 7.3611 9.7223 11.6331
12.9041 13.5429 13.6407 13.3694 12.7463 11.5611
9.7860 7.8208 6.2294 5.0949 4.1017 2.9626
1.5577 0.0254 -1.4644 -2.8573 -4.1810 -5.4401
-6.5072 -7.2281 -7.4783 -7.2549 -6.6632 -5.8666
-5.0884 -4.4266 -3.7241 -2.8712 -2.0155 -1.1700
-0.3660 0.2386 0.5903 0.6503 0.6254 0.7463
0.9494 1.0343 0.8838 0.5450 0.0715 -0.3633
-0.5497 -0.4990 -0.3300 -0.0910 0.2884 0.9641
1.7819 2.2813 2.2601 1.7598 0.9595 0.1278
-0.6199 -1.4553 -2.4448 -3.2045 -3.3919 -3.0097
-2.1725 -0.9531 0.6198 2.3238 3.6844 4.4690
4.8530 4.9896 4.8142 4.2779 3.5773 2.8831
2.0930 1.1967 0.4536 -0.0218 -0.6615 -1.9473
-3.6005 -5.0110 -6.0319 -7.1018 -8.5944 -10.1830
-11.4319 -12.3550 -13.0888 -13.6759 -14.0987 -14.2925
-14.2787 -14.0664 -13.4968 -12.4953 -11.2058 -9.8027
-8.4430 -7.1839 -5.8870 -4.4950 -3.2923 -2.5021
-2.0157 -1.8523 -2.0628 -2.4800 -2.8215 -2.8271
-2.5815 -2.2751 -1.9234 -1.3898 -0.4612 0.7923
2.0929 3.1821 3.8541 4.1329 4.1218 3.8726
3.4249 2.7815 1.8972 0.7997 -0.2803 -1.0317
-1.5486 -2.3933 -3.8369 -5.5474 -6.9994 -8.0619
-8.9757 -9.7289 -9.9551 -9.3911 -8.2769 -6.8305
-4.9511 -2.7487 -0.5721 1.3645 3.1848 5.0116
6.7193 8.0937 9.0777 9.9297 10.7900 11.2266
10.8343 9.8522 8.6854 7.5897 6.4922 5.0790
3.3574 1.6082 0.0777 -1.2644 -2.4856 -3.2702
-3.2342 -2.2807 -0.5666 1.5325 3.5919 5.3411
6.8660 8.2986 9.6084 10.7586 11.5589 11.8820
11.7536 11.0512 9.5595 7.3358 4.6875 1.7762
-1.2589 -4.1167 -6.5380 -8.1487 -8.6859 -8.3980
-7.4500 -5.8198 -3.5084 -0.5297 2.9327 6.7506
10.7502 14.5644 17.8256 20.3733 22.1935 23.1609
23.1517 22.0062 19.9265 17.5071 15.0083 12.5622
10.3071 8.2238 6.1468 4.0173 2.1675 0.8770
0.1256 -0.2657 -0.2740 0.2032 0.7672 0.7496
-0.2750 -2.1045 -4.2147 -6.2796 -8.1949 -9.9885
-11.7128 -13.3780 -14.8235 -15.7060 -15.7457 -15.0349
-13.9411 -12.7125 -11.3011 -9.5408 -7.6947 -6.1762
-4.8904 -3.6341 -2.5882 -2.0455 -1.9809 -2.1101
-2.1969 -2.2209 -2.1581 -1.8119 -1.0781 -0.1495
0.4560 0.3286 -0.5566 -1.9560 -3.4440 -4.6015
-5.2283 -5.6815 -6.3193 -6.8861 -6.9609 -6.4126
-5.5476 -4.7270 -4.0172 -3.4366 -2.9695 -2.4591
-1.8508 -1.3431 -1.0901 -0.9397 -0.5142 0.3868
1.5314 2.5717 3.3664 3.9027 4.1104 3.9563
3.6083 3.3655 3.2972 2.9778 2.2033 1.5249
1.3855 1.5877 1.6892 1.5166 1.4464 1.8996
2.8209 3.9110 5.0972 6.4891 7.9550 9.2334
10.2765 11.2014 12.0442 12.5759 12.6183 12.5039
12.6165 12.8159 12.8186 12.6331 12.3580 11.9759
11.4248 10.7786 10.2765 9.9700 9.5094 8.5466
7.1149 5.4793 3.8537 2.2577 0.5750 -1.2112
-3.0158 -4.6219 -5.6161 -5.7988 -5.4278 -4.8545
-4.0976 -3.0352 -1.7253 -0.3103 1.1057 2.6260
4.4435 6.4115 8.1266 9.4060 10.3817 11.2743
12.1558 12.9626 13.6706 14.2992 14.9453 15.5933
16.0327 16.1453 15.8416 15.2370 14.7062 14.4173
14.3121 14.2308 14.0388 13.6871 13.1287 12.3496
11.3075 9.9395 8.3287 6.7373 5.2715 3.8952
2.6472 1.4490 0.3598 -0.2328 -0.1543 0.5564
1.7786 3.1558 4.5210 6.0136 7.6936 9.4179
10.9585 12.0579 12.5148 12.3256 11.5963 10.4213
8.8493 6.9090 4.6345 2.2493 0.1696 -1.3507
-2.5138 -3.8033 -5.3910 -7.1171 -8.7482 -10.1263
-11.2774 -12.2356 -13.2436 -14.5285 -15.8706 -16.8029
-16.9931 -16.7577 -16.5325 -16.3515 -16.1614 -15.7423
-15.0177 -14.2931 -13.7605 -13.3220 -12.8559 -12.3870
-11.9236 -11.3098 -10.3590 -9.1350 -7.8953 -6.6667
-5.3126 -3.8006 -2.2138 -0.5744 1.2006 2.9572
4.2735 4.8126 4.6197 4.1508 3.7566 3.3661
2.8704 2.3664 1.8717 1.3197 0.7271 0.1751
-0.4489 -1.2760 -2.1391 -2.8434 -3.3151 -3.8108
-4.4892 -5.0523 -5.2305 -4.8945 -4.1994 -3.5080
-3.0899 -2.9025 -2.6191 -2.2379 -2.0237 -1.9803
-1.8991 -1.6739 -1.3988 -1.2927 -1.5742 -2.0847
-2.5065 -2.7797 -2.8933 -2.9044 -2.8287 -2.6256
-2.3736 -2.0505 -1.5834 -1.0638 -0.5487 0.1713
1.4304 3.1205 4.6417 5.6507 6.2488 6.7713
7.4663 8.0294 8.0525 7.7266 7.3426 6.9245
6.5488 6.3919 6.4925 6.5497 6.3475 6.0355
5.8814 5.9386 6.0402 6.1629 6.3928 6.6198
6.4694 5.6654 4.2688 2.6663 1.1580 -0.3401
-2.1115 -4.2484 -6.3964 -8.3063 -10.0342 -11.5112
-12.3668 -12.3161 -11.6173 -10.6721 -9.5810 -8.2444
-6.6235 -4.6786 -2.3257 0.1786 2.3081 3.8367
4.9721 5.8878 6.3669 6.1952 5.5730 5.0450
4.8696 4.4626 3.2690 1.3601 -0.8008 -2.6525
-3.9282 -4.6039 -4.8983 -5.1605 -5.6940 -6.5082
-7.1728 -7.3906 -7.4359 -7.7756 -8.3774 -8.7088
-8.4679 -7.8291 -6.9522 -5.7891 -4.2753 -2.4421
-0.4787 1.4155 3.0354 4.1311 4.7477 5.2527
5.8813 6.4720 6.5856 6.0326 4.9443 3.4499
1.5539 -0.8055 -3.3061 -5.4079 -6.9928 -8.3405
-9.6328 -10.7737 -11.3756 -11.0922 -10.2818 -9.4759
-8.8039 -8.1088 -7.2421 -6.2876 -5.2944 -4.4618
-4.0880 -4.1406 -4.4369 -4.8680 -5.3923 -5.9295
-6.5332 -7.0963 -7.2652 -6.8895 -5.9424 -4.5024
-2.6581 -0.7465 0.8265 1.9932 2.8443 3.4904
3.7683 3.6086 3.3243 3.1507 2.9781 2.7363
2.6707 2.7778 2.6624 1.9793 0.8855 -0.0597
-0.4493 -0.2923 -0.0782 -0.0265 0.2800 0.9686
1.7338 2.4150 3.1516 4.2981 5.9439 7.8002
9.7165 11.7242 13.6552 15.1469 16.0838 16.6285
16.8915 16.8906 16.6404 16.1208 15.3075 14.2146
12.9131 11.6632 10.7706 10.2657 9.7442 8.8589
7.8223 7.0432 6.5300 5.7897 4.3562 2.2276
-0.2093 -2.5152 -4.3807 -5.7330 -6.7161 -7.4121
-7.8173 -7.8376 -7.2552 -5.9961 -4.4010 -3.0210
-1.9660 -0.6247 1.4069 3.7118 5.7029 7.2777
8.8173 10.4530 11.8053 12.5198 12.4727 11.6955
10.1604 7.8204 5.1417 2.7029 0.5115 -1.5654
-3.4392 -4.9383 -5.9786 -6.6303 -7.0974 -7.3595
-7.3244 -7.1426 -6.9534 -6.8509 -6.6885 -6.3949
-6.2943 -6.4309 -6.4577 -6.3340 -6.5389 -7.2368
-7.9438 -8.3011 -8.4248 -8.5558 -8.6417 -8.4128
-7.8719 -7.4408 -7.5137 -7.9337 -8.1949 -8.1063
-8.0593 -8.2900 -8.6039 -8.8189 -8.8420 -8.6159
-7.9688 -6.9017 -5.8199 -5.0584 -4.5027 -3.7301
-2.6002 -1.4344 -0.3535 0.8077 2.1582 3.6970
5.0391 5.8302 6.1680 6.3969 6.6739 6.7495
6.5022 5.8671 4.8775 3.6185 1.9080 -0.0803
-2.0141 -3.9175 -5.7636 -7.2516 -8.0492 -8.1599
-8.1350 -8.4286 -8.7313 -8.6067 -7.9144 -6.9055
-6.0517 -5.3621 -4.6486 -4.0107 -3.6406 -3.5695
-3.5824 -3.5575 -3.7311 -4.2231 -4.7751 -5.2671
-5.9243 -6.9323 -7.9671 -8.5154 -8.6492 -8.7831
-9.1311 -9.3997 -9.0544 -8.0621 -6.8252 -5.6077
-4.3136 -2.8496 -1.4262 -0.2502 0.7079 1.4113
1.7621 1.7972 1.6070 1.4224 1.3762 1.4704
1.7353 1.9965 1.9873 1.5802 0.8353 0.0295
-0.5179 -0.6878 -0.7145 -0.9388 -1.2896 -1.4133
-1.1419 -0.6582 -0.3462 -0.3001 -0.2761 -0.0564
0.5205 1.3974 2.2143 2.6860 2.8670 3.1845
3.9848 5.0666 5.8771 6.0035 5.6131 5.1229
4.7399 4.6060 4.7860 4.9891 4.7546 3.8998
2.5872 1.1260 -0.2706 -1.4327 -2.1518 -2.5026
-2.6881 -2.5958 -2.0512 -0.9232 0.7808 2.7977
4.8700 6.7373 8.1810 9.0635 9.1955 8.5179
7.3503 6.2020 5.3453 4.6327 3.8149 2.9223
2.0038 1.1084 0.4660 0.2583 0.3829 0.4687
0.3700 0.2352 0.2666 0.5730 0.9635 1.3401
1.9022 2.7219 3.5342 4.1056 4.5155 4.8136
4.8127 4.4748 4.0899 3.8988 3.7936 3.3893
2.3564 0.9127 -0.4442 -1.4568 -2.0762 -2.3845
-2.4251 -2.3356 -2.3679 -2.4593 -2.3421 -2.0061
-1.8538 -2.2239 -2.7372 -2.6633 -2.0153 -1.5076
-1.4209 -1.2030 -0.3206 1.0114 2.1856 3.1253
4.2634 5.5262 6.1695 5.7255 4.5671 3.4234
2.5216 1.5449 0.3726 -0.7480 -1.7006 -2.7270
-4.0341 -5.3550 -6.0704 -5.8637 -5.2286 -4.7754
-4.5086 -4.1772 -3.7415 -3.3557 -3.0981 -2.9366
-2.9191 -3.0972 -3.3806 -3.5477 -3.2662 -2.4132
-1.2991 -0.2468 0.7843 2.0886 3.8055 5.7513
7.7544 9.7021 11.3673 12.5110 13.1073 13.3491
13.4811 13.6482 13.8614 14.1559 14.6405 15.3716
16.1109 16.4959 16.4469 16.2245 16.0518 15.8238
15.4971 15.1722 14.6654 13.6168 11.9839 10.3740
9.6439 9.8193 10.0574 9.6900 8.7660 7.6426
6.5063 5.3340 3.9919 2.5657 1.2264 -0.0484
-1.2235 -2.2564 -3.0881 -3.6881 -4.0638 -4.0582
-3.5782 -2.6903 -1.5161 -0.1601 1.4396 3.4694
5.9377 8.5444 11.0635 13.4681 15.6622 17.4382
18.6161 19.2290 19.3342 18.8459 17.7465 16.1515
14.2361 12.1038 9.6872 6.9918 4.3306 2.1171
0.5525 -0.4472 -1.0038 -1.3205 -1.8392 -2.7697
-3.9826 -5.2740 -6.5026 -7.6666 -8.6552 -9.2303
-9.3217 -9.1518 -8.9506 -8.7263 -8.3875 -7.8217
-7.0934 -6.4666 -6.0965 -6.0005 -6.0180 -5.8454
-5.4596 -5.0073 -4.5217 -3.9808 -3.3993 -2.8519
-2.4282 -2.1790 -2.1042 -2.2824 -2.6765 -3.2230
-3.8331 -4.4045 -5.0433 -5.7097 -6.2147 -6.4657
-6.6088 -6.8368 -7.1165 -7.3482 -7.5845 -8.0017
-8.7374 -9.7944 -11.0737 -12.4676 -13.8919 -15.2719
-16.5042 -17.6137 -18.5922 -19.2208 -19.3085 -18.9632
-18.4611 -17.8279 -16.9796 -16.0002 -15.3097 -15.2340
-15.4048 -15.1297 -14.0867 -12.5544 -10.9547 -9.4805
-8.0766 -6.6513 -5.2049 -3.6781 -2.0628 -0.5858
0.4840 1.2114 1.9092 2.7031 3.4147 3.9520
4.4975 5.1806 5.7741 5.9846 5.8470 5.6523
5.6892 5.9310 6.1147 6.1959 6.2430 6.1895
5.9236 5.3162 4.3987 3.3076 2.1972 1.3535
0.8070 0.2910 -0.2877 -0.7862 -0.9376 -0.5185
0.3002 1.1107 1.7559 2.2802 2.6688 2.7759
2.5424 2.2165 2.1215 2.2636 2.4113 2.3956
2.2470 2.0485 1.7107 1.1854 0.6039 0.0934
-0.3542 -0.7927 -1.1869 -1.5921 -2.1561 -2.7949
-3.2269 -3.2896 -3.2075 -3.2684 -3.4207 -3.5075
-3.4244 -3.1041 -2.5170 -1.7629 -1.0955 -0.7124
-0.6866 -0.9792 -1.3503 -1.5940 -1.7823 -1.9789
-2.1654 -2.3758 -2.6638 -3.1060 -3.7170 -4.4020
-5.0121 -5.3786 -5.4672 -5.3223 -4.9927 -4.6927
-4.6420 -4.9014 -5.3666 -5.7211 -5.6703 -5.2872
-4.8866 -4.7140 -4.7712 -4.7186 -4.2211 -3.3137
-2.2863 -1.3540 -0.4826 0.3943 1.1613 1.7623
2.3013 2.8838 3.4736 3.7930 3.7422 3.5087
3.3010 3.2078 3.0776 2.8367 2.5579 2.3105
2.2053 2.3835 2.8081 3.1976 3.3204 3.2604
3.3665 3.9241 4.8148 5.6188 6.0517 6.2179
6.4505 6.8493 7.2748 7.5859 7.5822 7.0597
5.9585 4.4982 2.8966 1.0487 -1.2719 -4.1178
-6.9830 -9.1753 -10.5488 -11.3371 -11.7701 -11.9639
-12.1125 -12.3073 -12.3738 -12.1605 -11.6538 -11.0547
-10.4713 -9.7670 -8.8144 -7.6864 -6.6350 -5.8006
-5.0907 -4.1261 -2.6714 -1.0200 0.4763 1.7021
2.7729 3.8621 4.9255 5.8698 6.6904 7.4169
7.9569 8.2910 8.5882 9.0249 9.7790 10.7593
11.7036 12.4531 13.0624 13.7076 14.3076 14.6657
14.5476 13.9153 12.8888 11.4054 9.4439 7.1778
4.9412 2.9409 1.0679 -0.8271 -2.6899 -4.3745
-5.7517 -6.9102 -8.0788 -9.2456 -10.2803 -11.1249
-11.8809 -12.6360 -13.1760 -13.3200 -13.1511 -12.8179
-12.3923 -11.8726 -11.2449 -10.4262 -9.3065 -7.8600
-6.2225 -4.7687 -3.6628 -2.6456 -1.4207 0.0931
1.5728 2.6870 3.4826 4.0780 4.5100 4.7759
4.8848 4.8460 4.6420 4.2368 3.6995 3.1660
2.6491 2.1903 1.7989 1.4315 1.1334 0.9229
0.7725 0.5602 0.2020 -0.2540 -0.8005 -1.3552
-1.8832 -2.5238 -3.3971 -4.4484 -5.4066 -6.1718
-7.0146 -8.1906 -9.7589 -11.5506 -13.2952 -14.8062
-16.0136 -17.0807 -18.0564 -18.7422 -19.0450 -19.0081
-18.8438 -18.7136 -18.5419 -18.2733 -17.9576 -17.5183
-16.7992 -15.8817 -14.9521 -14.0051 -13.0035 -11.9041
-10.6562 -9.4322 -8.1952 -6.7091 -4.9350 -2.9467
-0.8910 1.0742 2.8456 4.3714 5.6647 6.8102
7.8533 8.7311 9.2462 9.4612 9.7040 9.9357
9.8905 9.5175 9.1040 8.9591 9.0874 9.3689
9.8157 10.4120 10.8828 10.9206 10.4914 9.8544
9.2157 8.5695 7.8726 7.1351 6.3292 5.3489
4.1702 2.9249 1.9151 1.4176 1.5579 2.2705
3.4123 4.8726 6.4178 7.9187 9.3726 10.8283
12.2452 13.3261 13.9307 14.1236 13.9842 13.5568
12.8452 11.8104 10.4729 8.9175 7.2393 5.5916
4.1563 3.0283 2.0304 0.9670 -0.1683 -1.2723
-2.2656 -3.1462 -3.8643 -4.4588 -4.9619 -5.2240
-5.0634 -4.5188 -3.8191 -3.1914 -2.7899 -2.5979
-2.5840 -2.6551 -2.6939 -2.7825 -3.0327 -3.4453
-3.8708 -4.2022 -4.6019 -5.2453 -6.0345 -6.8090
-7.3896 -7.7062 -7.8234 -7.6887 -7.4643 -7.2557
-6.8810 -6.1637 -4.9970 -3.5367 -1.9730 -0.3650
1.2347 2.6756 3.7759 4.5623 5.0571 5.2500
5.1679 4.7885 4.1589 3.3586 2.5786 2.0940
2.0257 2.5676 3.8303 5.5666 7.4884 9.3770
11.0967 12.5293 13.6213 14.5490 15.3493 15.9345
16.2198 16.1367 15.8145 15.2690 14.4170 13.3130
11.9321 10.2502 8.3589 6.4564 4.7820 3.3078
1.9860 0.9420 0.3217 0.2081 0.2589 0.0558
-0.4233 -1.0509 -1.6426 -2.1328 -2.5048 -2.7854
-3.0725 -3.3559 -3.6549 -3.8949 -4.0214 -4.2291
-4.7820 -5.5842 -6.1768 -6.2589 -5.8168 -5.0774
-4.2457 -3.2239 -1.7922 0.1296 2.4262 4.8068
7.1330 9.4443 11.6939 13.6914 15.1988 16.2511
16.9397 17.2184 17.0024 16.1938 14.8461 13.0831
11.0218 8.8360 6.7849 5.0865 3.7056 2.4585
1.3840 0.7425 0.6363 0.8847 1.2576 1.7533
2.4677 3.2292 3.6557 3.6382 3.3142 2.6708
1.5751 0.0059 -1.7009 -3.2812 -4.8181 -6.2747
-7.5227 -8.5667 -9.5415 -10.4655 -11.2399 -11.6129
-11.4347 -11.0396 -10.7489 -10.4876 -9.8858 -8.7393
-7.2837 -5.8104 -4.4268 -3.0837 -1.7951 -0.7437
-0.0920 0.1027 -0.1077 -0.6865 -1.5551 -2.6379
-4.0419 -5.7911 -7.8006 -9.8480 -11.6544 -13.1443
-14.3821 -15.4667 -16.3381 -16.9353 -17.2593 -17.2557
-16.9030 -16.1923 -15.3015 -14.4523 -13.6123 -12.6246
-11.3259 -9.7677 -8.2031 -6.7151 -5.2262 -3.6819
-2.1007 -0.5195 1.0285 2.3781 3.4100 4.0968
4.3470 4.1965 3.7913 3.2457 2.6854 2.3153
2.2562 2.4473 2.8248 3.3796 4.0220 4.5796
4.9802 5.2174 5.2571 4.9192 4.0220 2.6217
0.9297 -0.8398 -2.5724 -4.1416 -5.5059 -6.8038
-8.1496 -9.4964 -10.5985 -11.2715 -11.6019 -11.7718
-11.8170 -11.6924 -11.3970 -11.0204 -10.6816 -10.3927
-10.1804 -10.2081 -10.5903 -11.1626 -11.6103 -11.7423
-11.5226 -10.9761 -10.0650 -8.7312 -7.0651 -5.3334
-3.7808 -2.4571 -1.2386 -0.0183 1.0672 1.8740
2.3290 2.4795 2.4869 2.4250 2.4370 2.5902
2.7472 2.7665 2.5016 1.8758 1.0856 0.2715
-0.6590 -1.7316 -2.8845 -3.9710 -4.8599 -5.5707
-6.2436 -7.0208 -7.8959 -8.8023 -9.6682 -10.4860
-11.2559 -11.9426 -12.5509 -12.9922 -13.1666 -13.0217
-12.5999 -11.9805 -11.1590 -10.0457 -8.6344 -7.2295
-5.9962 -4.8618 -3.7919 -2.7461 -1.8230 -1.1621
-0.8289 -0.7200 -0.5584 -0.2086 0.3176 0.8852
1.4299 1.9542 2.4655 3.0406 3.6332 4.2452
4.8692 5.5911 6.4754 7.3273 8.0483 8.4646
8.4553 8.1055 7.5775 6.9655 6.1892 5.2532
4.2360 3.2584 2.4277 1.6698 0.9563 0.5012
0.4504 0.6941 1.0901 1.7058 2.7110 4.0163
5.3704 6.7162 8.2227 9.9774 11.7322 13.1233
13.8903 14.1571 14.2660 14.4469 14.8928 15.4771
15.8472 15.8574 15.5703 15.2131 14.9177 14.5365
13.8414 12.8417 11.7405 10.6789 9.6239 8.4839
7.2608 6.0987 5.0593 3.9977 2.8734 1.7953
0.8547 -0.0472 -1.0450 -2.0475 -2.8829 -3.3961
-3.6933 -3.9130 -3.9887 -3.8244 -3.2715 -2.3143
-1.1096 0.1023 1.1343 1.8829 2.2780 2.4091
2.3749 2.1996 1.8229 1.2036 0.4632 -0.2411
-0.7691 -1.0534 -1.1780 -1.2444 -1.2038 -0.9601
-0.5263 0.0469 0.5712 0.8537 1.0401 1.2755
1.4924 1.5866 1.3872 0.8094 -0.0611 -1.2048
-2.6263 -4.3303 -6.4137 -8.8192 -11.4407 -14.2441
-17.0807 -19.7844 -22.1511 -23.9567 -25.2121 -25.9911
-26.2302 -25.9247 -24.9748 -23.2108 -20.8081 -18.1358
-15.4995 -13.0524 -10.8602 -9.0131 -7.5297 -6.4433
-5.7602 -5.3439 -5.0439 -4.7402 -4.2888 -3.6417
-2.8424 -1.9424 -1.0387 -0.0916 0.9856 2.1985
3.4391 4.5607 5.5290 6.3413 7.1019 7.7960
8.3129 8.5345 8.2705 7.5615 6.6071 5.5982
4.7296 4.0252 3.3689 2.6277 1.7886 1.0465
0.5988 0.4557 0.4400 0.4862 0.7086 1.1849
1.9603 2.9175 3.8517 4.6224 5.1384 5.4514
5.5280 5.2271 4.5043 3.4575 2.3738 1.4526
0.7372 0.1649 -0.3797 -0.9446 -1.4200 -1.7080
-1.8022 -1.6314 -1.1412 -0.2173 1.1470 2.7781
4.6030 6.5286 8.4015 10.0888 11.4882 12.5950
13.3787 13.6814 13.5042 13.0897 12.6263 12.1279
11.4180 10.3824 9.1547 7.9021 6.7704 5.8233
5.0774 4.6196 4.4765 4.7110 5.3645 6.2820
7.2079 7.9288 8.4605 8.9285 9.2626 9.2645
8.9469 8.3820 7.5005 6.2285 4.5771 2.8704
1.5125 0.5664 -0.2884 -1.2392 -2.1142 -2.8573
-3.5173 -4.1339 -4.5742 -4.6555 -4.3859 -3.8247
-3.0567 -2.1078 -1.1247 -0.3207 0.3079 0.9577
1.6694 2.1642 2.2334 1.8955 1.3408 0.7362
0.0531 -0.7564 -1.6768 -2.7494 -3.9641 -5.1512
-6.0355 -6.5589 -7.0213 -7.6186 -8.2527 -8.6404
-8.5749 -8.1217 -7.3814 -6.4029 -5.2638 -3.9965
-2.5186 -0.8451 0.8063 2.1595 2.9893 3.2644
3.1869 2.9755 2.7235 2.4779 2.2287 1.9333
1.6213 1.4099 1.3758 1.5382 1.8521 2.2444
2.7936 3.6438 4.7431 5.7714 6.5025 6.9511
7.2031 7.2382 6.9797 6.5320 5.9819 5.3136
4.5419 3.6954 2.8905 2.3007 1.9388 1.6490
1.2862 0.8394 0.4102 0.1287 0.0548 0.1767
0.4240 0.6327 0.7822 1.0407 1.5308 2.2351
3.0179 3.8089 4.7422 5.8683 6.9603 7.8095
8.4455 8.9800 9.4083 9.5855 9.3907 9.0095
8.6089 7.9969 7.0729 5.9569 4.8169 3.7101
2.6265 1.6572 0.8671 0.3142 -0.0338 -0.2812
-0.3551 -0.1280 0.3704 1.0526 1.8741 2.7160
3.4277 3.8504 3.9510 3.8320 3.6086 3.3529
3.0390 2.6652 2.2470 1.8113 1.2640 0.5513
-0.1751 -0.7502 -1.1074 -1.3428 -1.4951 -1.5394
-1.5265 -1.5071 -1.4647 -1.4028 -1.3373 -1.3281
-1.5551 -1.9908 -2.4948 -2.9924 -3.5730 -4.3456
-5.1413 -5.8197 -6.3164 -6.6865 -6.9837 -7.0585
-6.7899 -6.2647 -5.6176 -4.8173 -3.9081 -2.9629
-1.9909 -0.9727 0.1470 1.3377 2.5073 3.5429
4.4079 5.1556 5.7749 6.1709 6.3528 6.3888
6.2125 5.7768 5.1777 4.5888 4.1171 3.7340
3.4414 3.3592 3.5706 3.9703 4.3091 4.4734
4.6340 4.9081 5.2478 5.5450 5.6383 5.4832
5.1186 4.6007 4.0072 3.3306 2.4924 1.4420
0.2771 -0.7956 -1.6291 -2.2180 -2.6759 -3.0986
-3.4162 -3.5149 -3.3423 -2.9786 -2.5660 -2.2789
-2.2771 -2.5346 -3.0322 -3.6276 -4.2220 -4.8377
-5.4109 -6.0054 -6.6312 -7.2691 -7.8322 -8.2272
-8.4626 -8.5448 -8.4672 -8.1673 -7.5682 -6.6257
-5.3925 -3.9534 -2.4451 -0.9931 0.4090 1.7991
3.2271 4.5951 5.7240 6.5511 7.0939 7.5111
7.9523 8.3880 8.7055 8.8892 9.0803 9.4163
9.9443 10.6477 11.5098 12.4532 13.4621 14.5033
15.3443 15.8566 16.0098 15.8390 15.4236 14.7433
13.8424 12.8353 11.7821 10.7307 9.6193 8.3077
6.8557 5.3261 3.7588 2.2708 0.9351 -0.2151
-1.2425 -2.1858 -3.0554 -3.7486 -4.1704 -4.4501
-4.6477 -4.7114 -4.5221 -4.0901 -3.5788 -2.9760
-2.2403 -1.3283 -0.2548 0.7957 1.6920 2.4664
3.2058 3.8935 4.5156 5.1018 5.6805 6.2704
6.7550 7.0790 7.3947 7.7824 8.1821 8.5541
8.9380 9.4744 10.2368 11.1885 12.2279 13.2368
14.1312 14.8355 15.2315 15.1845 14.6906 13.8995
12.9451 11.8771 10.7288 9.4614 8.0842 6.7060
5.3325 3.9839 2.8125 1.9310 1.3384 0.8897
0.4476 0.0460 -0.2290 -0.3370 -0.3869 -0.5170
-0.7358 -1.0690 -1.5140 -2.0650 -2.6318 -3.0712
-3.3472 -3.4700 -3.6176 -3.8143 -3.9066 -3.8595
-3.6057 -3.1275 -2.5700 -2.0577 -1.5444 -0.9288
-0.1312 0.6922 1.2220 1.4103 1.4186 1.3854
1.2469 0.8481 0.2371 -0.3805 -0.8623 -1.3285
-1.9515 -2.6374 -3.1608 -3.3795 -3.3925 -3.4312
-3.5595 -3.7211 -3.8549 -3.9306 -3.9925 -4.0746
-4.1836 -4.3017 -4.3460 -4.2731 -4.1014 -3.8753
-3.7137 -3.6870 -3.7793 -3.8891 -3.9260 -3.9251
-3.9510 -4.0756 -4.2325 -4.1993 -3.8051 -3.1174
-2.2654 -1.3451 -0.4387 0.4807 1.3622 2.1339
2.7219 3.1059 3.1908 2.8853 2.3037 1.5145
0.6376 -0.3547 -1.5713 -2.8867 -4.1439 -5.3236
-6.5485 -7.8030 -8.9642 -10.0193 -11.0421 -11.9937
-12.7304 -13.1771 -13.3627 -13.3839 -13.2011 -12.7036
-11.8295 -10.6765 -9.4692 -8.3966 -7.5159 -6.7221
-5.9033 -5.0338 -4.1587 -3.3252 -2.5055 -1.5409
-0.4563 0.5351 1.3871 2.1560 2.9323 3.7501
4.5726 5.3535 6.0772 6.7326 7.2689 7.6630
7.9916 8.3812 8.8833 9.4658 10.0251 10.5144
10.9371 11.2630 11.4744 11.6331 11.7845 11.7910
11.5103 10.9224 10.2033 9.5008 8.7864 8.0101
7.0390 5.8584 4.5125 2.9664 1.1922 -0.7582
-2.7354 -4.6674 -6.5293 -8.2610 -9.8053 -11.1705
-12.4443 -13.7071 -14.9486 -16.0840 -17.0431 -17.7668
-18.2403 -18.5375 -18.7268 -18.8892 -18.9695 -18.7277
-18.0825 -17.0717 -15.8782 -14.7613 -13.7930 -12.8847
-11.9551 -11.0847 -10.3148 -9.6262 -8.9995 -8.4530
-8.0773 -7.7838 -7.5078 -7.2669 -7.0758 -6.9364
-6.8081 -6.7343 -6.7933 -7.0878 -7.6130 -8.1927
-8.6266 -8.9247 -9.2552 -9.6078 -9.9438 -10.1930
-10.3056 -10.3832 -10.4395 -10.5170 -10.7035 -11.0155
-11.4106 -11.7558 -12.0226 -12.2220 -12.3660 -12.4177
-12.2875 -12.0078 -11.5260 -10.7524 -9.6457 -8.2906
-6.9337 -5.7014 -4.5577 -3.3854 -2.2020 -1.1257
-0.1833 0.6466 1.3665 1.8715 2.0893 2.0330
1.7745 1.4468 1.1072 0.7878 0.6050 0.6512
0.7878 0.9013 1.0084 1.1478 1.4136 1.7634
2.1041 2.4613 2.8536 3.2625 3.6677 4.0231
4.3563 4.7403 5.2323 5.8240 6.3852 6.7711
6.9317 6.9935 7.0249 7.0637 7.2428 7.5511
7.9351 8.3274 8.6846 9.1147 9.6437 10.2261
10.8713 11.5249 12.1138 12.5873 12.9289 13.1624
13.3138 13.4079 13.4319 13.3405 13.1098 12.7415
12.2365 11.5516 10.6452 9.5947 8.4759 7.2547
5.8969 4.4347 2.9052 1.2658 -0.5388 -2.4892
-4.3945 -6.0302 -7.3225 -8.3609 -9.3643 -10.4775
-11.6194 -12.5886 -13.3289 -13.8726 -14.2003 -14.3674
-14.4126 -14.2871 -13.9778 -13.5671 -13.1231 -12.5221
-11.6369 -10.5246 -9.3551 -8.2243 -8.2243 -7.2089
-6.3579 -5.6120 -4.8939 -4.0603 -3.0597 -2.1090
-1.4111 -1.0207 -0.7982 -0.6090 -0.4410 -0.2305
0.0824 0.6196 1.3812 2.2332 3.1091 4.0064
4.9737 5.9402 6.8540 7.6497 8.2756 8.6974
8.7546 8.4537 7.9470 7.3276 6.5356 5.5396
4.5002 3.5624 2.7547 1.9664 1.1965 0.4922
-0.1872 -0.8056 -1.3549 -1.8330 -2.2327 -2.5853
-2.8613 -2.9988 -2.9758 -2.8096 -2.6509 -2.6545
-2.7745 -2.8382 -2.8059 -2.8447 -3.0736 -3.4844
-3.9690 -4.4527 -4.9936 -5.5862 -6.2222 -6.9099
-7.5921 -8.1385 -8.3896 -8.4256 -8.3979 -8.2779
-8.0444 -7.6465 -7.1001 -6.5305 -5.9915 -5.4053
-4.7149 -3.8749 -2.8641 -1.8026 -0.8084 0.0565
0.7894 1.5048 2.2839 3.1395 4.0774 4.9248
5.8349 6.7598 7.5352 8.4352 9.2650 10.0404
10.7106 11.1499 11.5773 11.9050 12.0979 12.1755
12.0472 11.6946 11.3549 11.1222 11.0050 11.0207
11.0715 11.2284 11.4684 11.7509 12.0425 12.2964
12.5419 12.8207 13.1502 13.4770 13.8342 14.1536
14.3327 14.3798 14.3364 14.4047 14.6521 14.8773
14.8182 14.3539 13.6154 12.7256 11.6050 10.1521
8.4388 6.6259 4.7863 2.8367 0.7321 -1.3873
-3.3829 -5.2420 -7.0383 -8.7201 -10.1620 -11.3334
-12.2906 -13.1149 -13.8423 -14.5521 -15.2407 -15.8112
-16.1361 -16.2016 -16.1093 -15.9026 -15.5472 -14.9204
-14.0324 -12.9654 -11.7414 -10.2811 -8.4940 -6.4513
-4.2922 -2.1008 0.0813 2.2312 4.3367 6.3767
8.3428 10.1880 11.8708 13.3846 14.8025 16.2378
17.6594 18.8852 19.8083 20.5098 21.0517 21.4172
21.4855 21.2040 20.6206 19.7335 18.5132 16.9661
15.1578 13.1778 11.1563 9.1652 7.2563 5.4693
3.7320 2.0373 0.4690 -0.9341 -2.2448 -3.5630
-5.0122 -6.5519 -7.9670 -9.1605 -10.1316 -10.9291
-11.6639 -12.3580 -12.8879 -13.2368 -13.4168 -13.4436
-13.4159 -13.3577 -13.3180 -13.3023 -13.2460 -13.1390
-13.0356 -12.9645 -12.9193 -12.8519 -12.7365 -12.6156
-12.4559 -12.2436 -11.8356 -11.2116 -10.5267 -9.8353
-9.2519 -8.8273 -8.6104 -8.6095 -8.7202 -8.8781
-9.1199 -9.5141 -9.9784 -10.4492 -10.8941 -11.3039
-11.7295 -12.1190 -12.4679 -12.7153 -12.7836 -12.6793
-12.4393 -12.1633 -11.8790 -11.5938 -11.2929 -11.0058
-10.7021 -10.2692 -9.6932 -9.0101 -8.2938 -7.5618
-6.8150 -6.1135 -5.4351 -4.7169 -3.9231 -3.0065
-2.0520 -1.1317 -0.1939 0.7994 1.7492 2.4738
2.9206 3.1661 3.2889 3.2944 3.2141 3.0766
2.9123 2.7692 2.6593 2.6510 2.7609 2.9556
3.1763 3.2261 3.0424 2.6732 2.1083 1.4612
0.8067 0.1975 -0.2843 -0.5723 -0.5539 -0.2880
0.0267 0.2603 0.4643 0.8206 1.4243 2.1978
2.9972 3.7005 4.2055 4.5092 4.6079 4.5461
4.4676 4.4288 4.4741 4.5581 4.6190 4.6836
4.7113 4.6181 4.3245 3.8593 3.3433 2.8827
2.5015 2.1839 1.9504 1.7981 1.7436 1.8368
2.0805 2.4442 2.8873 3.4107 4.0310 4.7344
5.4654 6.1614 6.7965 7.2885 7.5894 7.7103
7.6346 7.3586 6.8962 6.3266 5.7128 5.0556
4.3550 3.6424 2.9602 2.3630 1.8756 1.5156
1.2987 1.2313 1.2756 1.3660 1.4971 1.6531
1.8119 1.9494 2.0713 2.2790 2.5928 2.9436
3.2233 3.3451 3.3709 3.2879 3.0589 2.7562
2.3279 1.7768 1.1131 0.3174 -0.5272 -1.3635
-2.1296 -2.8053 -3.4506 -4.0598 -4.5703 -4.9109
-5.0770 -5.1306 -5.1232 -5.0853 -5.0373 -5.0216
-5.0567 -5.0927 -5.1398 -5.2524 -5.4278 -5.6549
-5.9013 -6.1164 -6.2466 -6.3140 -6.3103 -6.2207
-6.1146 -5.9503 -5.7241 -5.4103 -4.9414 -4.3783
-3.7700 -3.2780 -2.9494 -2.6789 -2.4241 -2.1500
-1.9451 -1.8297 -1.6801 -1.3792 -0.8402 -0.1672
0.5343 1.2626 2.0177 2.8254 3.6035 4.3429
5.0776 5.7829 6.4669 7.0309 7.3973 7.5192
7.3281 6.8739 6.2592 5.5253 4.7444 4.0050
3.3063 2.6980 2.2041 1.7629 1.3429 0.9404
0.5906 0.2943 0.0090 -0.2882 -0.6011 -0.9094
-1.2713 -1.7226 -2.2700 -2.8636 -3.3583 -3.7599
-4.1282 -4.5306 -4.9866 -5.4371 -5.8636 -6.2300
-6.4783 -6.5605 -6.4866 -6.2466 -5.8645 -5.3476
-4.7365 -4.1116 -3.4230 -2.7113 -1.9774 -1.2141
-0.5365 -0.0261 0.2767 0.5185 0.8324 1.2718
1.9401 2.7791 3.6311 4.4148 5.1053 5.7440
6.3099 6.6256 6.5388 6.0247 5.2142 4.2127
3.0182 1.6668 0.2093 -1.2012 -2.4722 -3.6713
-4.8159 -5.8977 -6.9233 -7.8888 -8.7805 -9.5476
-10.1799 -10.6922 -11.1380 -11.5950 -11.9873 -12.2476
-12.3556 -12.3288 -12.2633 -12.1719 -12.0897 -12.0371
-11.9531 -11.7879 -11.5331 -11.2507 -10.9894 -10.7356
-10.4319 -10.0701 -9.6704 -9.2356 -8.8165 -8.5055
-8.3642 -8.3301 -8.2608 -8.1012 -7.9212 -7.7725
-7.5999 -7.2519 -6.6584 -5.8535 -4.8603 -3.7378
-2.5664 -1.4467 -0.4277 0.5148 1.3363 1.9243
2.2280 2.4209 2.6646 2.8852 2.9785 2.9074
2.8335 2.9120 3.0172 3.0117 2.8769 2.7089
2.4901 2.1615 1.7517 1.2846 0.8508 0.4178
-0.0483 -0.4997 -0.8745 -1.1311 -1.2603 -1.1911
-0.8523 -0.2172 0.5932 1.4037 2.1569 2.8612
3.4806 3.9717 4.3206 4.6150 4.9289 5.1892
5.3276 5.2639 4.9953 4.5938 4.0852 3.5212
3.0320 2.7209 2.5630 2.4560 2.2916 2.0867
1.9787 2.1061 2.4670 2.9526 3.4963 4.0002
4.4119 4.7387 5.0849 5.5787 6.1648 6.6495
6.8848 6.9190 6.8175 6.6753 6.4778 6.1002
5.6184 5.1375 4.7221 4.2670 3.7150 3.1833
2.7125 2.3461 2.1144 2.0350 2.1716 2.5528
3.1408 3.8101 4.4313 4.9224 5.2297 5.3387
5.1827 4.7793 4.2171 3.4261 2.4467 1.4784
0.6476 -0.0290 -0.6438 -1.2355 -1.7671 -2.1724
-2.4253 -2.5370 -2.4419 -2.1373 -1.6896 -1.1875
-0.7739 -0.5552 -0.5635 -0.7536 -1.0204 -1.3065
-1.5973 -1.8585 -2.0422 -2.0219 -1.6942 -1.0130
0.0070 1.2540 2.6700 4.2503 5.9746 7.7395
9.4509 11.0811 12.6106 14.0432 15.3300 16.4469
17.3958 18.1361 18.6022 18.8487 18.9835 19.0656
19.1053 18.9696 18.6438 18.2201 17.7853 17.3727
16.9647 16.6102 16.2742 15.9355 15.6013 15.3512
15.3106 15.4361 15.5902 15.6770 15.7425 15.8515
16.0167 16.1579 16.1939 16.1312 15.9622 15.7093
15.3835 15.0521 14.8047 14.5813 14.2499 13.7062
13.0029 12.2635 11.4567 10.4746 9.3041 8.1133
7.0564 6.1167 5.1078 3.8284 2.3044 0.7094
-0.7860 -2.0912 -3.2626 -4.4340 -5.6146 -6.7306
-7.7017 -8.4835 -9.1832 -9.9355 -10.7635 -11.6136
-12.4084 -13.0573 -13.5059 -13.7219 -13.6776 -13.4118
-12.9198 -12.2358 -11.4327 -10.6204 -9.8487 -9.0568
-8.2537 -7.4423 -6.7094 -6.0014 -5.2094 -4.4017
-3.5913 -2.8168 -2.0350 -1.1774 -0.3060 0.5330
1.3435 2.1244 2.8952 3.6696 4.3924 4.9887
5.3856 5.5453 5.5001 5.2951 4.9748 4.4773
3.7352 2.8361 1.9389 1.1422 0.4130 -0.2738
-0.8433 -1.1931 -1.3021 -1.2494 -0.9873 -0.4907
0.1647 0.8902 1.5096 1.9961 2.4124 2.7659
3.0161 3.1093 3.0327 2.7539 2.3265 1.8170
1.2502 0.6798 0.1038 -0.4630 -1.0372 -1.5328
-1.8532 -2.0895 -2.2519 -2.3968 -2.5353 -2.6341
-2.7439 -2.8565 -3.0236 -3.2978 -3.7215 -4.2827
-4.8172 -5.2602 -5.6544 -6.0605 -6.5036 -6.8968
-7.2467 -7.5651 -7.8153 -7.9556 -7.9141 -7.7691
-7.5338 -7.1553 -6.6901 -6.1778 -5.7042 -5.3212
-5.0415 -4.8615 -4.7572 -4.7267 -4.6806 -4.5486
-4.3030 -3.9144 -3.4280 -2.8132 -2.0563 -1.2163
-0.3043 0.6714 1.7412 2.8628 3.9169 4.7772
5.3246 5.5498 5.4824 5.1455 4.5788 3.8200
2.9061 1.9018 0.9308 0.0732 -0.6089 -1.0677
-1.3289 -1.4360 -1.4618 -1.3852 -1.2172 -1.0400
-0.9163 -0.8711 -0.7732 -0.5397 -0.1797 0.1895
0.4480 0.5643 0.4600 0.1258 -0.3579 -0.9874
-1.8385 -2.9277 -4.2071 -5.5021 -6.6449 -7.5772
-8.2917 -8.8464 -9.1935 -9.2581 -9.0689 -8.7089
-8.2778 -7.8283 -7.3446 -6.8581 -6.4714 -6.3182
-6.5009 -6.9689 -7.5717 -8.1274 -8.5243 -8.7671
-8.9443 -9.1123 -9.1668 -8.9932 -8.6185 -8.2271
-7.9142 -7.6668 -7.4499 -7.2172 -7.0077 -6.7686
-6.4234 -5.9489 -5.3702 -4.7148 -3.9800 -3.2250
-2.4385 -1.6613 -1.0105 -0.5924 -0.4881 -0.6930
-1.1314 -1.7351 -2.5142 -3.4954 -4.6317 -5.7957
-6.9440 -8.0259 -8.9517 -9.5831 -9.7446 -9.3846
-8.5326 -7.3890 -6.1142 -4.7776 -3.4964 -2.3185
-1.2948 -0.4419 0.1775 0.4747 0.4941 0.2624
-0.1706 -0.7715 -1.5376 -2.3259 -2.9730 -3.3441
-3.2905 -2.8493 -2.1967 -1.5026 -0.8435 -0.2213
0.3685 0.9565 1.4577 1.8334 2.1094 2.2525
2.3273 2.3891 2.4473 2.5331 2.6069 2.6245
2.5774 2.3974 2.1583 1.8583 1.3783 0.7063
-0.1494 -1.0586 -1.9752 -2.8890 -3.7696 -4.6133
-5.3407 -5.8770 -6.1133 -6.0653 -5.9047 -5.7478
-5.6232 -5.4496 -5.1515 -4.7813 -4.4149 -4.1084
-3.8112 -3.4004 -2.9324 -2.5217 -2.2697 -2.1884
-2.2392 -2.5651 -3.2195 -4.1177 -5.1884 -6.4133
-7.7666 -9.1106 -10.3226 -11.3066 -12.0764 -12.6930
-13.1656 -13.4490 -13.4758 -13.2616 -12.8066 -12.1964
-11.5503 -10.9346 -10.4352 -9.9949 -9.5029 -8.8586
-7.9263 -6.6764 -5.1848 -3.5648 -1.9374 -0.3045
1.4004 3.2152 5.1583 7.2047 9.2816 11.2718
13.0708 14.6345 16.0006 17.1942 18.1496 18.7837
19.0486 18.9314 18.4689 17.6936 16.6431 15.4117
14.0982 12.7763 11.4831 10.2674 9.1459 8.1933
7.4401 6.7773 6.1561 5.5551 5.0142 4.5518
4.1272 3.7007 3.2530 2.8256 2.4905 2.3059
2.2284 2.2293 2.2948 2.4250 2.6502 2.9078
3.1182 3.2733 3.4108 3.5364 3.5991 3.6398
3.7644 4.0533 4.5748 5.2560 5.9890 6.7440
7.4631 8.1157 8.6880 9.1182 9.3268 9.2760
8.9686 8.4600 7.8434 7.1982 6.5963 6.1117
5.7813 5.6160 5.6068 5.6742 5.8053 5.9474
6.0471 6.1533 6.2871 6.5234 6.8649 7.2517
7.5822 7.7566 7.7511 7.5526 7.3052 7.0200
6.6462 6.1929 5.6105 4.9385 4.1603 3.2816
2.3686 1.5010 0.8013 0.2853 -0.0895 -0.3258
-0.4273 -0.3683 -0.1190 0.2770 0.7394 1.1529
1.3671 1.2517 0.7837 0.0139 -1.0292 -2.3704
-3.9378 -5.5975 -7.1879 -8.4830 -9.4116 -9.9821
-10.2507 -10.2590 -9.9830 -9.4670 -8.7378 -7.9283
-7.2018 -6.5861 -6.0849 -5.6723 -5.3778 -5.2310
-5.2597 -5.4397 -5.6317 -5.8006 -5.8809 -5.8135
-5.5643 -5.0511 -4.3071 -3.3572 -2.2541 -0.9960
0.4560 2.0104 3.5889 5.1240 6.5501 7.8322
8.9750 9.9341 10.6107 10.9772 10.9679 10.4935
9.5990 8.3649 6.8113 4.9947 2.9972 0.9590
-0.9453 -2.6806 -4.2074 -5.4554 -6.3766 -6.9581
-7.2434 -7.2526 -6.9600 -6.3443 -5.5209 -4.6440
-3.7514 -2.8329 -1.9625 -1.1797 -0.5825 -0.3213
-0.3757 -0.7219 -1.2711 -1.9727 -2.8570 -3.8677
-4.8859 -5.7646 -6.3923 -6.6702 -6.6120 -6.3185
-5.9031 -5.3908 -4.8434 -4.3163 -3.7607 -3.2151
-2.7093 -2.3336 -2.1471 -2.1481 -2.2810 -2.4896
-2.8681 -3.3887 -4.0154 -4.7244 -5.5044 -6.3748
-7.3053 -8.3520 -9.4357 -10.5028 -11.5339 -12.4154
-13.1723 -13.7797 -14.1397 -14.2329 -14.0769 -13.6902
-13.0985 -12.3176 -11.3982 -10.3394 -9.1274 -7.8388
-6.5179 -5.2155 -4.0275 -3.0278 -2.2441 -1.7336
-1.4595 -1.3081 -1.1909 -1.0626 -0.9786 -0.8493
-0.6158 -0.3610 -0.0656 0.2316 0.5307 0.8870
1.2534 1.6051 1.8562 1.9900 2.0436 1.9549
1.6956 1.1869 0.4088 -0.6490 -1.9515 -3.3444
-4.7669 -6.1459 -7.5259 -8.9318 -10.2388 -11.3835
-12.3121 -13.0662 -13.6274 -13.9311 -13.9450 -13.6265
-13.0155 -12.0564 -10.7327 -9.1432 -7.3912 -5.5201
-3.5410 -1.5112 0.4217 2.0195 3.2721 4.2451
4.9355 5.4026 5.6352 5.7072 5.6897 5.5937
5.4081 5.1340 4.8580 4.6050 4.4075 4.2266
4.0207 3.8167 3.5767 3.2666 2.8678 2.4100
1.8884 1.3401 0.8675 0.5620 0.4438 0.4124
0.4226 0.4383 0.4346 0.4318 0.4152 0.3561
0.2278 0.0294 -0.1866 -0.3814 -0.5356 -0.5836
-0.4617 -0.1303 0.3958 1.0253 1.6678 2.2373
2.7386 3.2536 3.7770 4.2912 4.7315 4.9696
5.0185 5.0001 5.0176 5.1228 5.2650 5.3481
5.3342 5.2715 5.1801 5.0555 4.9271 4.7896
4.7213 4.7471 4.8118 4.9281 5.0813 5.3628
5.8631 6.5037 7.2357 8.0148 8.7883 9.5748
10.3705 11.2391 12.1179 12.8452 13.3862 13.7009
13.7960 13.6852 13.4102 13.0197 12.5295 11.9729
11.3526 10.7203 10.1360 9.5905 9.0745 8.6360
8.3323 8.2317 8.2926 8.4256 8.5954 8.7726
8.9812 9.1908 9.3431 9.3569 9.1760 8.8123
8.2677 7.5837 6.8028 5.9859 5.1496 4.3031
3.5176 2.8262 2.2326 1.6179 0.9810 0.3865
-0.1821 -0.6667 -1.1024 -1.4763 -1.7403 -1.9147
-1.9978 -2.0061 -1.9203 -1.7855 -1.6683 -1.6101
-1.6572 -1.8040 -2.0957 -2.5517 -3.1018 -3.6981
-4.2824 -4.7984 -5.2756 -5.7787 -6.3519 -6.9575
-7.4809 -7.8326 -7.9507 -7.8556 -7.6627 -7.4264
-7.1689 -6.8523 -6.4092 -5.8415 -5.2314 -4.6960
-4.2492 -3.8052 -3.3418 -2.8923 -2.4428 -1.9581
-1.4532 -1.0046 -0.6585 -0.3889 -0.1268 0.1225
0.3772 0.6384 0.8895 1.1969 1.5061 1.7720
2.0258 2.2049 2.2547 2.1698 1.9963 1.8661
1.8117 1.8274 1.8633 1.8467 1.7184 1.4027
0.9421 0.4086 -0.1250 -0.6225 -1.0600 -1.4016
-1.6019 -1.5880 -1.3988 -1.0951 -0.7231 -0.3437
0.0523 0.4732 0.9135 1.4239 1.9852 2.5418
3.0827 3.5230 3.8369 4.0879 4.2135 4.1682
3.9965 3.7095 3.3495 2.9525 2.4670 1.8559
1.1267 0.2655 -0.6798 -1.6684 -2.6597 -3.5228
-4.2271 -4.7976 -5.2536 -5.5425 -5.5877 -5.4622
-5.2490 -5.0200 -4.8188 -4.6453 -4.5244 -4.4265
-4.2954 -4.1256 -3.9447 -3.7841 -3.5865 -3.2450
-2.7475 -2.1502 -1.5004 -0.8856 -0.3539 0.1261
0.5082 0.8534 1.2116 1.5587 1.9528 2.4587
3.1076 3.8710 4.7645 5.8057 6.9660 8.2066
9.4860 10.7441 11.9063 12.9263 13.8106 14.6377
15.4620 16.2955 17.1244 17.9413 18.7333 19.4265
19.9832 20.4678 20.9755 21.4601 21.8561 22.1358
22.2198 22.1219 21.7647 21.1158 20.2148 19.1367
18.0050 16.8124 15.6327 14.4272 13.2586 12.2589
11.4410 10.9426 10.8272 11.0644 11.5500 12.1352
12.7241 13.3112 13.8613 14.3404 14.7281 14.9302
14.8804 14.6025 14.2481 13.8650 13.4192 12.9022
12.2330 11.4124 10.5198 9.6041 8.6893 7.7976
6.9466 6.1850 5.6561 5.4410 5.5666 6.0069
6.5856 7.2143 7.8983 8.6035 9.3216 10.0859
10.8844 11.6893 12.4213 13.0379 13.5308 13.8622
14.0699 14.1733 14.2185 14.2434 14.2000 14.0939
13.9037 13.6000 13.1542 12.5016 11.6930 10.8068
9.8856 8.9708 8.0598 7.2050 6.4075 5.6662
5.0561 4.5789 4.2844 4.1164 3.9549 3.7490
3.4629 3.1555 2.8536 2.4872 2.0090 1.4570
0.8653 0.2801 -0.2728 -0.7648 -1.1857 -1.5762
-1.9399 -2.2584 -2.5851 -2.9950 -3.5017 -4.1802
-4.9787 -5.8380 -6.7251 -7.5623 -8.3728 -9.0808
-9.6485 -10.0639 -10.3131 -10.4691 -10.5549 -10.6325
-10.7802 -11.0506 -11.4254 -11.8712 -12.3845 -12.9485
-13.5586 -14.2371 -14.9839 -15.7352 -16.3989 -16.9205
-17.3718 -17.7872 -18.1685 -18.5100 -18.7998 -19.0555
-19.2503 -19.3888 -19.4054 -19.2531 -18.9872 -18.6457
-18.2562 -17.7891 -17.2149 -16.5346 -15.7085 -14.7254
-13.6094 -12.3725 -11.1457 -10.0316 -9.0928 -8.4015
-7.8901 -7.5199 -7.2448 -7.0778 -7.0796 -7.2485
-7.5568 -7.9482 -8.4808 -9.1362 -9.9015 -10.7276
-11.5261 -12.3402 -13.1257 -13.9399 -14.7845 -15.5645
-16.2513 -16.7793 -17.1836 -17.4457 -17.5962 -17.7014
-17.7014 -17.5925 -17.3599 -17.0220 -16.5836 -16.0694
-15.5498 -15.0384 -14.6636 -14.4190 -14.2519 -14.1578
-14.0719 -14.0793 -14.2076 -14.4402 -14.7901 -15.1879
-15.6079 -15.9670 -16.2347 -16.4091 -16.4128 -16.2513
-15.8867 -15.3781 -14.8058 -14.1864 -13.5587 -12.9070
-12.2812 -11.7384 -11.2898 -10.9446 -10.6732 -10.4480
-10.3317 -10.3621 -10.4526 -10.5827 -10.7434 -10.9012
-11.1015 -11.3304 -11.6157 -11.9277 -12.1252 -12.1917
-12.1464 -12.0661 -11.9609 -11.8178 -11.5326 -11.0378
-10.3908 -9.5609 -8.6803 -7.8154 -6.9819 -6.2185
-5.5446 -5.0157 -4.5754 -4.2431 -3.9726 -3.7317
-3.5840 -3.4751 -3.4160 -3.3920 -3.3487 -3.2877
-3.2000 -3.0274 -2.7228 -2.3591 -1.9770 -1.6244
-1.3438 -1.1278 -1.0041 -0.9302 -0.8776 -0.8028
-0.6330 -0.3875 -0.0930 0.2255 0.5236 0.7719
1.0045 1.2261 1.3885 1.4873 1.4956 1.4254
1.2990 1.1061 0.8365 0.5024 0.1138 -0.3155
-0.6792 -0.8952 -0.8998 -0.7226 -0.4558 -0.0681
0.4147 0.9491 1.5694 2.2340 2.8802 3.4977
4.0663 4.5906 5.0549 5.4740 5.8765 6.2919
6.7663 7.2500 7.7642 8.3032 8.9023 9.6223
10.4115 11.2284 11.9706 12.5853 13.0663 13.4281
13.7373 14.0743 14.4675 14.9023 15.3333 15.6638
15.9416 16.2084 16.4696 16.7530 17.0216 17.2542
17.3918 17.3696 17.2348 17.0438 16.7585 16.4032
15.9785 15.4376 14.8404 14.2247 13.6238 13.0709
12.5622 12.1155 11.7038 11.2672 10.7521 10.1678
9.5678 8.9503 8.3013 7.6303 6.9333 6.2097
5.4647 4.7041 3.9232 3.1238 2.3014 1.3995
0.4312 -0.5731 -1.6355 -2.7783 -3.9931 -5.2014
-6.3571 -7.4832 -8.5660 -9.6072 -10.5653 -11.3213
-11.7875 -11.9527 -11.8466 -11.4838 -10.8921 -10.0355
-8.9057 -7.5183 -5.9038 -4.1712 -2.3759 -0.5731
1.2176 2.9179 4.3912 5.6041 6.5853 7.4115
8.1407 8.7351 9.1385 9.3397 9.3259 9.1819
8.9456 8.5856 8.1610 7.6284 7.0044 6.3545
5.6853 5.0751 4.5287 4.0496 3.6527 3.3472
3.2299 3.2567 3.3591 3.5244 3.6813 3.8696
4.0921 4.2988 4.5038 4.6921 4.7927 4.7871
4.7290 4.6339 4.5490 4.3717 3.9859 3.4681
2.9004 2.3447 1.7318 0.9767 0.1505 -0.6535
-1.3578 -1.9430 -2.3888 -2.6362 -2.6612 -2.4719
-2.1562 -1.7122 -1.1593 -0.5399 0.1348 0.7976
1.4465 2.0373 2.5939 3.1496 3.7043 4.2886
4.8933 5.5440 6.2363 6.9000 7.5443 8.2569
9.0701 10.0301 11.0400 11.9631 12.7634 13.3670
13.7732 13.9338 13.8461 13.6024 13.1317 12.4052
11.5237 10.5184 9.4098 8.2311 6.9904 5.7148
4.4234 3.1043 1.7723 0.4976 -0.6378 -1.5480
-2.2430 -2.7895 -3.2363 -3.6332 -3.9812 -4.2166
-4.2673 -4.1520 -3.8917 -3.5492 -3.1874 -2.7987
-2.4323 -2.0732 -1.6735 -1.2351 -0.7329 -0.2058
0.3618 1.0449 1.7538 2.5080 3.3729 4.3366
5.3640 6.3535 7.3366 8.2947 9.1818 9.9673
10.5378 10.9015 11.0990 11.1295 11.0168 10.7658
10.4205 10.0079 9.4956 8.8956 8.1756 7.3846
6.6489 5.9889 5.4175 4.9107 4.4879 4.1519
3.8538 3.6369 3.4679 3.3147 3.1827 3.0443
2.9363 2.8439 2.7923 2.8255 2.9095 2.9879
2.9621 2.8624 2.7138 2.5218 2.3519 2.2098
2.1913 2.3178 2.5236 2.7996 3.0941 3.4264
3.8021 4.1768 4.5793 5.0159 5.4433 5.8079
6.0442 6.1144 5.9962 5.6861 5.1285 4.2654
3.1762 1.9005 0.4753 -1.0007 -2.4804 -3.8973
-5.2228 -6.4782 -7.6366 -8.7111 -9.7025 -10.5923
-11.4296 -12.1800 -12.8428 -13.4511 -13.9865 -14.4406
-14.7729 -14.9935 -15.1172 -15.1717 -15.1892 -15.1486
-15.0342 -14.8874 -14.7000 -14.4748 -14.2948 -14.0954
-13.8794 -13.7206 -13.5757 -13.4825 -13.4363 -13.3690
-13.2471 -13.0542 -12.8354 -12.5880 -12.3683 -12.2216
-12.1228 -12.1108 -12.1994 -12.4644 -12.8465 -13.2730
-13.7650 -14.2145 -14.6179 -15.0019 -15.3342 -15.6407
-15.8668 -15.9545 -15.8862 -15.7062 -15.4173 -14.9142
-14.1997 -13.2859 -12.1838 -10.9579 -9.6619 -8.2875
-6.8918 -5.5626 -4.3017 -3.1303 -2.0558 -1.0866
-0.2041 0.6322 1.3974 2.0740 2.6925 3.2500
3.7752 4.2746 4.6946 5.0020 5.1801 5.2438
5.2106 5.0490 4.7250 4.2432 3.5971 2.8660
2.1294 1.4084 0.7124 0.0377 -0.5697 -1.1060
-1.5629 -1.9802 -2.3992 -2.8165 -3.2780 -3.7349
-4.1521 -4.5537 -4.9460 -5.3485 -5.7020 -6.0020
-6.2595 -6.4598 -6.6721 -6.9288 -7.1540 -7.2657
-7.2121 -7.0211 -6.7460 -6.3878 -5.9392 -5.3346
-4.5796 -3.6934 -2.7454 -1.7771 -0.7267 0.3413
1.4176 2.4579 3.4124 4.3115 5.1413 5.9204
6.5868 7.1121 7.5302 7.8634 8.1441 8.3905
8.5917 8.7007 8.7487 8.7071 8.5262 8.2290
7.7887 7.2487 6.7004 6.2139 5.7874 5.3951
5.0674 4.7434 4.3908 4.0687 3.8084 3.6468
3.6081 3.6514 3.7281 3.8767 4.1139 4.3881
4.6724 4.9419 5.2244 5.5687 5.9314 6.2813
6.5979 6.8305 7.0197 7.1545 7.1868 7.1305
6.9791 6.7723 6.5102 6.1926 5.8474 5.4994
5.1745 4.8662 4.6428 4.4905 4.3511 4.2283
4.0899 3.9449 3.7945 3.5997 3.3680 3.1188
2.8373 2.5253 2.1791 1.7942 1.4351 1.1462
0.9145 0.7133 0.5268 0.3625 0.1714 -0.0594
-0.2698 -0.4157 -0.5292 -0.7092 -0.9760 -1.2954
-1.6775 -2.0855 -2.4852 -2.8932 -3.2790 -3.6658
-4.0701 -4.4412 -4.7495 -4.9415 -4.9830 -4.8483
-4.5326 -4.0784 -3.5560 -3.0160 -2.4612 -1.9175
-1.4043 -0.9852 -0.6751 -0.4277 -0.2892 -0.3114
-0.4831 -0.7305 -1.0434 -1.4163 -1.9074 -2.5821
-3.3400 -4.1348 -4.9175 -5.6615 -6.3667 -7.0157
-7.5630 -7.9590 -8.2747 -8.5554 -8.8138 -9.0861
-9.3150 -9.4434 -9.5163 -9.5514 -9.5707 -9.6400
-9.7637 -9.9464 -10.1735 -10.4107 -10.6249 -10.7901
-10.9683 -11.1677 -11.3744 -11.6006 -11.8194 -12.0390
-12.2107 -12.3197 -12.4064 -12.5070 -12.6187 -12.7009
-12.7877 -12.9058 -13.1126 -13.3904 -13.7052 -14.0486
-14.3283 -14.5526 -14.7132 -14.7594 -14.6754 -14.4381
-14.0763 -13.6212 -13.1144 -12.5689 -11.9800 -11.3671
-10.6526 -9.8412 -9.0400 -8.2397 -7.4680 -6.7573
-6.0806 -5.5047 -5.0016 -4.4911 -4.0517 -3.6613
-3.3290 -3.0650 -2.8065 -2.5573 -2.2933 -2.0311
-1.7348 -1.4016 -1.0536 -0.6456 -0.1841 0.3310
0.8211 1.2725 1.7516 2.2611 2.8011 3.3347
3.7990 4.1562 4.4368 4.6611 4.8254 4.9528
5.0017 4.9953 4.9685 4.9445 5.0109 5.1466
5.2869 5.4032 5.5343 5.7522 6.0448 6.4334
6.9032 7.3694 7.8374 8.3266 8.8398 9.3881
9.9503 10.4691 10.9324 11.3764 11.8444 12.3475
12.8737 13.3786 13.8300 14.2352 14.5887 14.8915
15.1056 15.1933 15.1582 15.0632 15.0124 15.0216
15.0909 15.1822 15.3115 15.5256 15.7988 16.1385
16.5170 16.8493 17.0865 17.2287 17.3081 17.3478
17.2619 16.9785 16.4635 15.6991 14.8084 13.8521
12.8099 11.7022 10.5235 9.2681 8.0053 6.7656
5.5832 4.4903 3.4490 2.4724 1.5355 0.6771
-0.0789 -0.7574 -1.3288 -1.8199 -2.2075 -2.4983
-2.6792 -2.7669 -2.8260 -2.8112 -2.7189 -2.5555
-2.3571 -2.1780 -2.0626 -2.0312 -2.0645 -2.1669
-2.3322 -2.5556 -2.8002 -3.0503 -3.3152 -3.6005
-3.9743 -4.3731 -4.7756 -5.1900 -5.5629 -5.9746
-6.4482 -6.9494 -7.4285 -7.8531 -8.2103 -8.4558
-8.6294 -8.7531 -8.7909 -8.7632 -8.6626 -8.4826
-8.2408 -7.9380 -7.6712 -7.4368 -7.2559 -7.1746
-7.1433 -7.2328 -7.3694 -7.4977 -7.6629 -7.8651
-8.1513 -8.4965 -8.9211 -9.4426 -10.0159 -10.6371
-11.3072 -11.9912 -12.6291 -13.2651 -13.8475 -14.2777
-14.5315 -14.5943 -14.5002 -14.2306 -13.7885 -13.1451
-12.3226 -11.3433 -10.2208 -9.0236 -7.7211 -6.3679
-5.0258 -3.7298 -2.5390 -1.4433 -0.4206 0.4997
1.2797 1.9157 2.4511 2.9717 3.5173 4.1293
4.7496 5.3459 5.9136 6.3880 6.7886 7.1265
7.4218 7.6378 7.7560 7.8197 7.8372 7.7985
7.6729 7.5105 7.3249 7.1320 7.0212 7.0000
7.0729 7.2418 7.4698 7.7348 8.0311 8.3431
8.6024 8.7981 8.8858 8.8664 8.8027 8.6449
8.4012 8.0744 7.6387 7.1458 6.6640 6.1923
5.7391 5.3772 5.1446 5.0994 5.2378 5.5240
5.9514 6.4923 7.1237 7.8030 8.4778 9.1267
9.7701 10.3849 10.9664 11.4889 11.9264 12.3021
12.6150 12.8596 13.0396 13.1891 13.2833 13.3627
13.4495 13.5667 13.7522 13.9738 14.2451 14.5636
14.9208 15.2467 15.5347 15.7294 15.7802 15.7636
15.6399 15.4433 15.1645 14.7999 14.3605 13.8251
13.3091 12.8254 12.4036 12.0611 11.7316 11.4297
11.1971 11.0605 10.9830 10.9507 10.9304 10.9341
10.9230 10.7817 10.5380 10.1799 9.6907 9.1045
8.4057 7.6091 6.7378 5.8350 4.9184 4.0258
3.2559 2.5747 1.9092 1.2482 0.5559 -0.1373
-0.7890 -1.4176 -2.0702 -2.7108 -3.3219 -3.9376
-4.5173 -5.1025 -5.6776 -6.1917 -6.6440 -6.9625
-7.2099 -7.4471 -7.6317 -7.7822 -7.8994 -7.9520
-7.9640 -7.9363 -7.8957 -7.8523 -7.7960 -7.7720
-7.7444 -7.7324 -7.7379 -7.6714 -7.5680 -7.4425
-7.2921 -7.1601 -7.0124 -6.8361 -6.6154 -6.3810
-6.1936 -6.0459 -5.9675 -5.9831 -6.0524 -6.1484
-6.2785 -6.4604 -6.7179 -7.0788 -7.4951 -7.8902
-8.3204 -8.7893 -9.2693 -9.7622 -10.2025 -10.5782
-10.8985 -11.1441 -11.3213 -11.4496 -11.5327 -11.5188
-11.4099 -11.2567 -11.0564 -10.8542 -10.6410 -10.3678
-10.0641 -9.7558 -9.4696 -9.2601 -9.1318 -9.0145
-8.9342 -8.8456 -8.7090 -8.5456 -8.2973 -7.9687
-7.5958 -7.2386 -6.8823 -6.5001 -6.1577 -5.8641
-5.6463 -5.5032 -5.4201 -5.4164 -5.4598 -5.5512
-5.6786 -5.8124 -5.9906 -6.2269 -6.4881 -6.7734
-7.0438 -7.2460 -7.3909 -7.5026 -7.5810 -7.6346
-7.6300 -7.5487 -7.4315 -7.3032 -7.1749 -7.0115
-6.7835 -6.5260 -6.2260 -5.8697 -5.4940 -5.0786
-4.6263 -4.1574 -3.6515 -3.1392 -2.6316 -2.1488
-1.6817 -1.1842 -0.7125 -0.2694 0.1635 0.5724
0.9352 1.2343 1.4780 1.6201 1.6736 1.6607
1.5823 1.4170 1.1475 0.7958 0.3278 -0.2593
-0.9700 -1.8303 -2.7996 -3.8630 -4.9956 -6.1189
-7.1943 -8.1608 -9.0100 -9.7595 -10.3743 -10.8903
-11.2909 -11.5771 -11.8217 -12.0026 -12.1217 -12.1808
-12.1965 -12.2029 -12.1946 -12.1946 -12.1863 -12.1282
-11.9666 -11.6851 -11.3325 -10.9383 -10.5156 -10.0383
-9.4937 -8.8882 -8.1968 -7.4150 -6.5584 -5.6741
-4.7888 -3.9461 -3.1430 -2.3501 -1.6070 -0.8990
-0.2953 0.1607 0.4570 0.5151 0.3711 0.0813
-0.2990 -0.7541 -1.2507 -1.7686 -2.3362 -2.9039
-3.4698 -3.9784 -4.3762 -4.6864 -4.8710 -4.9679
-4.9652 -4.8415 -4.6735 -4.4132 -4.0670 -3.6756
-3.2030 -2.6916 -2.1480 -1.5277 -0.8704 -0.2021
0.5206 1.3126 2.1452 3.0286 3.9655 4.8785
5.7434 6.5538 7.2618 7.8443 8.3169 8.6594
8.8403 8.8597 8.7074 8.3990 7.9707 7.4880
6.9581 6.3812 5.7867 5.1563 4.4723 3.7588
3.0184 2.2412 1.4825 0.6932 -0.0757 -0.7680
-1.4114 -1.9514 -2.4101 -2.7711 -3.0231 -3.1615
-3.1975 -3.1172 -2.9105 -2.6594 -2.3160 -1.9098
-1.4539 -0.8991 -0.2797 0.4071 1.1234 1.8406
2.5864 3.3664 4.1630 4.9209 5.6427 6.3415
6.9876 7.6319 8.2725 8.8624 9.4061 9.9202
10.4168 10.9107 11.3888 11.8107 12.1208 12.2980
12.3516 12.2925 12.1984 11.9962 11.6316 11.1719
10.6061 9.9765 9.2934 8.5651 7.8018 6.9756
6.0848 5.1581 4.2248 3.2805 2.3473 1.4021
0.4790 -0.3933 -1.2268 -1.9653 -2.6068 -3.0960
-3.4413 -3.6785 -3.7745 -3.7293 -3.5567 -3.3250
-3.0684 -2.7905 -2.4905 -2.2034 -1.9718 -1.7401
-1.4899 -1.2416 -1.0044 -0.7561 -0.4865 -0.2604
-0.1210 -0.0869 -0.1699 -0.3139 -0.4385 -0.5382
-0.6250 -0.6924 -0.7118 -0.6979 -0.6555 -0.5622
-0.4801 -0.3942 -0.3010 -0.2336 -0.1256 0.0442
0.2547 0.5085 0.7891 1.0420 1.2442 1.4094
1.5543 1.6928 1.7907 1.8986 2.0454 2.2051
2.4110 2.6288 2.8457 3.0626 3.2685 3.4965
3.6903 3.8565 4.0309 4.1509 4.2940 4.4399
4.5294 4.5949 4.6042 4.5986 4.5912 4.5857
4.6005 4.5866 4.5977 4.6328 4.6115 4.5635
4.5091 4.4869 4.5497 4.6586 4.7804 4.9263
5.0980 5.2964 5.5494 5.8577 6.1789 6.4844
6.8103 7.1564 7.5155 7.9133 8.2946 8.6518
9.0266 9.4290 9.8896 10.3669 10.8533 11.3527
11.8290 12.2822 12.7078 13.1305 13.5542 13.9613
14.3204 14.5788 14.7385 14.7828 14.7090 14.5050
14.1487 13.6705 13.1268 12.5481 11.9499 11.3471
10.7315 10.1158 9.4825 8.8364 8.2558 7.6964
7.1416 6.6145 6.0810 5.5299 4.9816 4.4195
3.8444 3.3081 2.7589 2.2143 1.6983 1.1767
0.6893 0.1798 -0.3648 -0.9380 -1.5556 -2.1574
-2.7574 -3.3565 -3.9371 -4.4762 -4.9608 -5.3993
-5.8082 -6.2051 -6.5743 -6.9380 -7.2897 -7.6128
-7.9303 -8.2239 -8.4962 -8.7897 -9.1488 -9.6029
-10.1623 -10.8122 -11.5109 -12.2042 -12.8558 -13.4688
-14.0300 -14.5460 -14.9946 -15.3481 -15.6574 -15.8669
-15.9371 -15.8734 -15.6897 -15.4423 -15.1146 -14.7168
-14.2266 -13.6552 -13.0820 -12.5060 -11.9429 -11.4020
-10.8971 -10.4162 -9.9020 -9.4045 -8.9670 -8.5654
-8.1824 -7.7974 -7.4568 -7.1596 -6.8762 -6.6002
-6.2947 -5.9725 -5.6033 -5.1879 -4.7522 -4.2612
-3.7701 -3.3095 -2.8461 -2.4141 -1.9876 -1.5575
-1.1643 -0.8338 -0.5680 -0.3704 -0.2541 -0.1554
-0.0621 -0.0095 0.0505 0.1400 0.2591 0.4271
0.6025 0.8037 1.0336 1.2597 1.5283 1.7748
1.9760 2.1818 2.3951 2.6563 2.9194 3.1428
3.3237 3.4760 3.5997 3.6541 3.6504 3.5692
3.4686 3.3578 3.2120 3.0818 2.9692 2.9037
2.8917 2.9600 3.0671 3.1972 3.3726 3.5554
3.7677 3.9781 4.1701 4.3390 4.4249 4.4886
4.5227 4.4673 4.3917 4.2458 4.0584 3.8886
3.7030 3.5378 3.3495 3.1510 2.9720 2.8160
2.7135 2.6323 2.5824 2.5400 2.5030 2.4790
2.4513 2.4458 2.4652 2.5427 2.6599 2.7578
2.8483 2.9295 3.0144 3.1344 3.2461 3.3218
3.4344 3.5747 3.6882 3.7722 3.8027 3.7335
3.5452 3.2858 2.9756 2.6405 2.2842 1.8522
1.3842 0.9227 0.4621 0.0052 -0.4361 -0.8505
-1.2317 -1.5484 -1.7994 -1.9905 -2.1299 -2.3025
-2.4881 -2.6644 -2.8988 -3.1379 -3.3724 -3.6225
-3.8367 -4.0453 -4.2447 -4.4542 -4.6924 -4.9157
-5.2074 -5.5601 -5.9514 -6.3797 -6.7748 -7.2170
-7.6628 -8.0930 -8.5287 -8.9007 -9.2431 -9.5403
-9.7877 -10.0139 -10.1976 -10.3093 -10.3951 -10.4847
-10.5622 -10.6804 -10.7939 -10.8834 -11.0154 -11.1484
-11.3145 -11.5453 -11.7290 -11.8425 -11.8471 -11.7354
-11.5794 -11.3773 -11.1401 -10.8336 -10.4745 -10.0914
-9.6779 -9.2422 -8.7835 -8.3265 -7.8539 -7.3887
-6.9669 -6.5570 -6.1278 -5.6847 -5.2241 -4.7109
-4.1506 -3.5570 -2.9395 -2.2546 -1.5152 -0.7131
0.1749 1.0823 2.0100 2.8989 3.7537 4.6306
5.5020 6.3835 7.2189 7.9721 8.7050 9.4260
10.1053 10.7524 11.3524 11.9016 12.3955 12.8127
13.1782 13.4958 13.7358 13.9084 13.9979 14.0127
14.0127 13.9758 13.9047 13.7939 13.6564 13.5539
13.5059 13.5068 13.5207 13.5881 13.7007 13.8521
14.0597 14.2794 14.4964 14.7364 14.9874 15.1702
15.2773 15.3133 15.2847 15.2043 15.0493 14.8656
14.6551 14.4040 14.1520 13.8853 13.5917 13.2871
12.9899 12.7176 12.4877 12.3050 12.1342 11.9542
11.7493 11.5084 11.2287 10.8825 10.4422 9.9077
9.2736 8.5702 7.8354 7.0674 6.2718 5.4678
4.6453 3.8552 3.1296 2.4548 1.8622 1.3924
1.0869 0.8949 0.8219 0.8764 1.0047 1.1745
1.3342 1.5124 1.7210 1.9739 2.2850 2.5905
2.8776 3.1425 3.4028 3.6724 3.9327 4.1736
4.4090 4.6647 4.9259 5.1816 5.4299 5.6477
5.7945 5.9385 6.0428 6.0954 6.1840 6.2034
6.1720 6.1009 5.9874 5.8813 5.7576 5.6006
5.4225 5.2434 4.9942 4.6859 4.3526 3.9889
3.6400 3.3206 2.9874 2.6542 2.3560 2.1003
1.9314 1.8354 1.8253 1.9231 2.0893 2.3533
2.6763 3.0040 3.3317 3.5911 3.8025 4.0009
4.1329 4.1754 4.1191 3.9622 3.7268 3.4471
3.1591 2.8582 2.5951 2.4345 2.3412 2.3163
2.3532 2.4142 2.5055 2.6015 2.6643 2.6948
2.6468 2.5351 2.3505 2.0255 1.5815 0.9963
0.3169 -0.4188 -1.2348 -2.0683 -2.9323 -3.8471
-4.7674 -5.6692 -6.5092 -7.2670 -7.9363 -8.4670
-8.8723 -9.1787 -9.3753 -9.4898 -9.5018 -9.4206
-9.2710 -9.0634 -8.8520 -8.6083 -8.3609 -8.1255
-7.8375 -7.5200 -7.1618 -6.7594 -6.3200 -5.8769
-5.4486 -5.0129 -4.5680 -4.0520 -3.4926 -2.9443
-2.4080 -1.8976 -1.4028 -0.9154 -0.4465 -0.0099
0.3640 0.6178 0.7775 0.8338 0.7969 0.6796
0.4987 0.2947 0.0243 -0.2120 -0.3957 -0.5600
-0.6644 -0.7400 -0.7714 -0.7677 -0.7456 -0.7613
-0.8647 -1.0290 -1.3004 -1.6733 -2.1071 -2.6019
-3.1179 -3.6496 -4.1951 -4.7222 -5.2123 -5.6490
-6.0136 -6.3025 -6.5157 -6.6597 -6.7373 -6.7548
-6.7373 -6.6883 -6.6422 -6.6090 -6.5767 -6.5564
-6.5536 -6.6053 -6.7087 -6.8610 -7.0456 -7.2413
-7.4776 -7.7379 -8.0204 -8.3425 -8.6840 -9.0404
-9.3865 -9.6939 -9.9800 -10.1979 -10.3225 -10.3604
-10.3031 -10.1407 -9.8684 -9.5167 -9.0902 -8.6527
-8.2281 -7.7905 -7.3844 -6.9847 -6.6358 -6.3672
-6.1512 -6.0201 -5.9324 -5.8724 -5.8105 -5.7505
-5.7385 -5.7210 -5.6730 -5.6075 -5.5198 -5.4219
-5.3287 -5.2512 -5.1829 -5.1192 -5.0555 -4.9678
-4.8515 -4.7324 -4.6189 -4.4832 -4.3503 -4.2413
-4.1435 -4.0577 -3.9617 -3.8407 -3.6838 -3.5158
-3.3330 -3.1263 -2.9047 -2.6546 -2.4109 -2.1617
-1.9438 -1.7768 -1.6457 -1.5700 -1.5174 -1.5275
-1.5561 -1.5737 -1.5829 -1.5571 -1.5072 -1.3771
-1.1685 -0.9008 -0.5860 -0.2823 0.0186 0.3075
0.5697 0.8558 1.1494 1.4171 1.6792 1.9164
2.1481 2.4038 2.6484 2.8395 2.9955 3.1256
3.1995 3.2678 3.3481 3.3860 3.4376 3.4903
3.5179 3.5779 3.6352 3.6832 3.7238 3.7441
3.7607 3.7644 3.7376 3.6878 3.6296 3.5355
3.4312 3.3222 3.1589 2.9475 2.7176 2.5053
2.3290 2.1970 2.0798 1.9930 1.9598 1.9505
1.9690 1.9985 2.0179 2.0152 1.9644 1.8693
1.7327 1.5555 1.3450 1.0801 0.7856 0.4838
0.1487 -0.1707 -0.4984 -0.8482 -1.1722 -1.4971
-1.7676 -1.9735 -2.1415 -2.2116 -2.2218 -2.1858
-2.0630 -1.8830 -1.6725 -1.4215 -1.1187 -0.8215
-0.5141 -0.1956 0.1007 0.3887 0.6250 0.8197
0.9887 1.0994 1.1677 1.1982 1.1890 1.1437
1.0542 0.9508 0.8096 0.6120 0.3656 0.0776
-0.2280 -0.5529 -0.8326 -1.1233 -1.4612 -1.7639
-2.0879 -2.4406 -2.7692 -3.1107 -3.4698 -3.8446
-4.2239 -4.6061 -5.0215 -5.4175 -5.8024 -6.2021
-6.5446 -6.8289 -7.0652 -7.2341 -7.3504 -7.4150
-7.3984 -7.2959 -7.1501 -6.9452 -6.6313 -6.2363
-5.7636 -5.2052 -4.6126 -4.0061 -3.3950 -2.8006
-2.2320 -1.7049 -1.2157 -0.7948 -0.4698 -0.1975
0.0065 0.1902 0.3665 0.5169 0.7015 0.9166
1.1806 1.4963 1.8618 2.2680 2.7286 3.2594
3.8077 4.3772 4.9310 5.4489 5.9630 6.4190
6.8556 7.2923 7.6827 8.0787 8.4525 8.7987
9.1578 9.4855 9.7744 10.0771 10.3485 10.5858
10.8101 10.9642 11.0962 11.2421 11.3778 11.5199
11.6630 11.8199 11.9750 12.0968 12.2325 12.3202
12.3414 12.3387 12.2445 12.0756 11.8208 11.4811
11.0648 10.5839 10.0882 9.5759 9.0922 8.6242
8.1627 7.7261 7.2978 6.8888 6.4919 6.1291
5.7774 5.4470 5.1414 4.8258 4.5433 4.2405
3.9082 3.6128 3.2953 2.9510 2.5651 2.1128
1.6504 1.1953 0.7707 0.3645 -0.0102 -0.3499
-0.6776 -0.9536 -1.2028 -1.3865 -1.4973 -1.5776
-1.5896 -1.5472 -1.4733 -1.3856 -1.2887 -1.1945
-1.1041 -0.9933 -0.8493 -0.7035 -0.5613 -0.3979
-0.2687 -0.1506 -0.0029 0.1430 0.2888 0.4467
0.5999 0.7374 0.8888 1.0365 1.1648 1.3070
1.4593 1.6273 1.8543 2.1008 2.3426 2.5845
2.8116 3.0165 3.1633 3.3165 3.4309 3.4669
3.4789 3.4023 3.3054 3.1651 2.9306 2.6851
2.4248 2.1442 1.8691 1.5746 1.2192 0.8639
0.5196 0.1356 -0.2614 -0.6684 -1.1152 -1.6026
-2.0752 -2.5515 -3.0130 -3.4026 -3.7561 -4.0377
-4.2564 -4.4097 -4.4743 -4.4512 -4.3146 -4.0995
-3.7912 -3.4127 -2.9826 -2.5488 -2.1592 -1.7743
-1.4365 -1.1346 -0.8891 -0.7322 -0.6389 -0.6186
-0.6251 -0.6334 -0.6555 -0.6915 -0.7432 -0.7968
-0.8245 -0.7949 -0.7266 -0.6316 -0.4968 -0.3528
-0.2079 -0.0343 0.1595 0.3497 0.5297 0.6792
0.8121 0.9294 0.9967 0.9958 0.9063 0.7530
0.5555 0.3201 0.0460 -0.2623 -0.5614 -0.8291
-1.0414 -1.1633 -1.2279 -1.2427 -1.1550 -1.0331
-0.8707 -0.6464 -0.4433 -0.2568 -0.0814 0.0699
0.1715 0.2195 0.2186 0.1558 0.0746 -0.0131
-0.1147 -0.2088 -0.2771 -0.3021 -0.2938 -0.2494
-0.1950 -0.1396 -0.0565 0.0016 0.0376 0.0875
0.0976 0.0699 0.0284 -0.0538 -0.1728 -0.3335
-0.5227 -0.7461 -0.9852 -1.2381 -1.5427 -1.8547
-2.2018 -2.5664 -2.9411 -3.3353 -3.7027 -4.0710
-4.4144 -4.7190 -5.0005 -5.2359 -5.4408 -5.6208
-5.7436 -5.8027 -5.8091 -5.7565 -5.6495 -5.5359
-5.3965 -5.2553 -5.1316 -4.9913 -4.8667 -4.7781
-4.7282 -4.7098 -4.7089 -4.7190 -4.6932 -4.6322
-4.5566 -4.4513 -4.3387 -4.2095 -4.0673 -3.9233
-3.7655 -3.6409 -3.5218 -3.3990 -3.3012 -3.2200
-3.1636 -3.1000 -3.0557 -3.0326 -3.0289 -3.0520
-3.0870 -3.1618 -3.2532 -3.3723 -3.5477 -3.7590
-3.9741 -4.1809 -4.3729 -4.5732 -4.7597 -4.8880
-5.0015 -5.0707 -5.0744 -5.0550 -4.9858 -4.9009
-4.8418 -4.7781 -4.7154 -4.6729 -4.6655 -4.6812
-4.7292 -4.8178 -4.8981 -4.9747 -5.0440 -5.1095
-5.1621 -5.1603 -5.1584 -5.1538 -5.0975 -5.0135
-4.9065 -4.7745 -4.6074 -4.4191 -4.2372 -4.0415
-3.8431 -3.6631 -3.5172 -3.4120 -3.3529 -3.3548
-3.3751 -3.4277 -3.5302 -3.6871 -3.8975 -4.1126
-4.3563 -4.5871 -4.7920 -4.9711 -5.0606 -5.1132
-5.1252 -5.0616 -4.9665 -4.8326 -4.6757 -4.4966
-4.2779 -4.0453 -3.7868 -3.5173 -3.2366 -2.9274
-2.6090 -2.2757 -1.9176 -1.5170 -1.1099 -0.7342
-0.3788 -0.0890 0.1399 0.3236 0.4501 0.5562
0.6522 0.7233 0.7492 0.7556 0.7695 0.7741
0.7898 0.8165 0.8581 0.9338 1.0307 1.1848
1.3648 1.6002 1.8854 2.1384 2.4254 2.7144
2.9774 3.2507 3.5147 3.7713 4.0150 4.2559
4.4756 4.6667 4.8614 5.0497 5.2306 5.4245
5.6036 5.7448 5.8786 5.9922 6.0568 6.1039
6.1057 6.0586 5.9829 5.8537 5.7106 5.5389
5.3257 5.1152 4.9436 4.8263 4.7617 4.7626
4.8309 4.9389 5.0442 5.1577 5.2989 5.4171
5.4937 5.5408 5.5426 5.5435 5.5408 5.4762
5.3783 5.2362 5.0543 4.8448 4.6112 4.3629
4.0675 3.7842 3.5100 3.2737 3.0688 2.8278
2.6192 2.3875 2.1365 1.8946 1.6075 1.3242
1.0537 0.7620 0.4555 0.1537 -0.1500 -0.4860
-0.8285 -1.1497 -1.4700 -1.7958 -2.1032 -2.3875
-2.6681 -2.9137 -3.1288 -3.3374 -3.5377 -3.7343
-3.9005 -4.0768 -4.2521 -4.4146 -4.5789 -4.7238
-4.8697 -4.9869 -5.0663 -5.1318 -5.1817 -5.2177
-5.2297 -5.2158 -5.1826 -5.1263 -5.0663 -5.0082
-4.9371 -4.8669 -4.8005 -4.7414 -4.6952 -4.6722
-4.6537 -4.6260 -4.6371 -4.6509 -4.6592 -4.6980
-4.7322 -4.7645 -4.8042 -4.8448 -4.8956 -4.9592
-5.0386 -5.1282 -5.2251 -5.3276 -5.4254 -5.5214
-5.6460 -5.7983 -5.9506 -6.1371 -6.3494 -6.5811
-6.8276 -7.0574 -7.3020 -7.5448 -7.7571 -8.0036
-8.2814 -8.5408 -8.7983 -9.0577 -9.3060 -9.5174
-9.7094 -9.8746 -10.0122 -10.1516 -10.2540 -10.3177
-10.3620 -10.4008 -10.4248 -10.4100 -10.3556 -10.2780
-10.1433 -9.9356 -9.6900 -9.3808 -9.0263 -8.6562
-8.2445 -7.7931 -7.3316 -6.8313 -6.3088 -5.7799
-5.2131 -4.6630 -4.1396 -3.6079 -3.0827 -2.5418
-1.9935 -1.4692 -0.9384 -0.4326 0.0428 0.4979
0.8948 1.2825 1.6286 1.9037 2.1696 2.3809
2.5489 2.6994 2.7649 2.7973 2.8249 2.8286
2.8185 2.8065 2.7963 2.7594 2.7419 2.7437
2.7677 2.8222 2.8868 2.9588 3.0003 3.0419
3.0815 3.1203 3.1720 3.1969 3.2440 3.3003
3.3649 3.4997 3.6557 3.8403 4.0831 4.3554
4.6489 4.9627 5.2997 5.6338 5.9606 6.2864
6.5920 6.8800 7.1153 7.3092 7.4596 7.5344
7.5658 7.5658 7.5446 7.4846 7.3886 7.2667
7.0932 6.8975 6.6676 6.3852 6.0944 5.8009
5.5240 5.3153 5.1630 5.0458 4.9378 4.8455
4.7966 4.7615 4.7523 4.7504 4.7476 4.7679
4.7643 4.7356 4.7089 4.6664 4.6027 4.5298
4.4338 4.3193 4.1929 4.0627 3.9399 3.8319
3.7747 3.7498 3.7498 3.7913 3.8375 3.8956
3.9824 4.0738 4.1818 4.2990 4.4162 4.5168
4.6045 4.7042 4.8011 4.9055 4.9978 5.0688
5.1334 5.1621 5.1750 5.1694 5.1205 5.0485
4.9211 4.7578 4.5842 4.3774 4.1698 3.9362
3.6879 3.4618 3.2310 3.0002 2.7593 2.5138
2.2784 2.0365 1.7947 1.5593 1.3304 1.1116
0.8725 0.6473 0.4276 0.1858 -0.0330 -0.2398
-0.4549 -0.6829 -0.8665 -1.0364 -1.1942 -1.2986
-1.3936 -1.4776 -1.5533 -1.6309 -1.7029 -1.7546
-1.8413 -1.9493 -2.0739 -2.2281 -2.3647 -2.5170
-2.6453 -2.7459 -2.8429 -2.9066 -2.9186 -2.8595
-2.7450 -2.6001 -2.4173 -2.1884 -1.9493 -1.6983
-1.4398 -1.1777 -0.9238 -0.7078 -0.4918 -0.3127
-0.2020 -0.1198 -0.0607 -0.0497 -0.0820 -0.1171
-0.1771 -0.2527 -0.3404 -0.4724 -0.6257 -0.7844
-0.9681 -1.1638 -1.3595 -1.5718 -1.7906 -2.0241
-2.2687 -2.5041 -2.7091 -2.8937 -3.0764 -3.2343
-3.3977 -3.5380 -3.6626 -3.7937 -3.9192 -4.0383
-4.1149 -4.1952 -4.2700 -4.3300 -4.3761 -4.4103
-4.4426 -4.4408 -4.4251 -4.3780 -4.3152 -4.2414
-4.1454 -4.0475 -3.9285 -3.8048 -3.6515 -3.4789
-3.2906 -3.0672 -2.8374 -2.5937 -2.3279 -2.0362
-1.7473 -1.4528 -1.1528 -0.8750 -0.5740 -0.2971
-0.0479 0.1875 0.3952 0.5780 0.7220 0.8567
0.9435 1.0118 1.0589 1.0552 1.0635 1.0561
1.0358 0.9933 0.9361 0.8484 0.7256 0.6149
0.4792 0.3195 0.1653 0.0103 -0.1559 -0.2888
-0.4181 -0.5224 -0.5750 -0.6313 -0.6479 -0.6248
-0.5833 -0.5196 -0.4615 -0.4171 -0.3691 -0.3239
-0.3027 -0.3018 -0.3221 -0.3442 -0.3701 -0.4088
-0.4642 -0.5418 -0.6138 -0.6848 -0.7448 -0.7532
-0.7568 -0.7661 -0.7661 -0.7642 -0.7412 -0.7015
-0.6064 -0.4809 -0.3396 -0.1753 -0.0082 0.1671
0.3370 0.5373 0.7357 0.9610 1.2093 1.4640
1.7640 2.0548 2.3714 2.7102 3.0471 3.3822
3.6886 3.9942 4.2979 4.5554 4.7825 5.0169
5.2265 5.4240 5.6114 5.7591 5.8855 5.9732
5.9871 5.9428 5.8597 5.7185 5.5588 5.3825
5.1563 4.9477 4.7003 4.4132 4.1557 3.8677
3.5797 3.2926 2.9714 2.6215 2.2625 1.8951
1.4880 1.0735 0.6600 0.2437 -0.1671 -0.5705
-0.9508 -1.3098 -1.6661 -1.9772 -2.2255 -2.4166
-2.5311 -2.5911 -2.5772 -2.5191 -2.4009 -2.2191
-2.0243 -1.8037 -1.5951 -1.3920 -1.1917 -1.0255
-0.8945 -0.7809 -0.7015 -0.6323 -0.5705 -0.5354
-0.4809 -0.4496 -0.4191 -0.3785 -0.3397 -0.2779
-0.2142 -0.1496 -0.0794 0.0166 0.1190 0.2141
0.3332 0.4670 0.5963 0.7310 0.8695 1.0135
1.1796 1.3292 1.4769 1.6467 1.7972 1.9541
2.1073 2.2439 2.3935 2.5181 2.6446 2.8070
2.9833 3.1873 3.4199 3.6562 3.8824 4.1021
4.3181 4.5350 4.7436 4.9467 5.1673 5.3778
5.5679 5.7682 5.9574 6.1227 6.2953 6.4365
6.5233 6.5805 6.6073 6.6267 6.6322 6.6257
6.6350 6.6396 6.6331 6.6663 6.6931 6.6811
6.6977 6.7153 6.7310 6.7494 6.7642 6.7753
6.7577 6.7568 6.7374 6.7060 6.7070 6.6977
6.6885 6.6756 6.6737 6.6913 6.7014 6.6959
6.6802 6.6792 6.6792 6.7042 6.7531 6.8002
6.8620 6.9423 7.0300 7.0900 7.1288 7.1657
7.1666 7.1260 7.0706 6.9682 6.8629 6.7623
6.6405 6.5352 6.4078 6.2814 6.1365 5.9648
5.7968 5.5974 5.3980 5.1986 4.9854 4.7925
4.5968 4.3688 4.1648 3.9377 3.6977 3.4568
3.1614 2.8771 2.5715 2.2355 1.9079 1.5894
1.2792 0.9820 0.7235 0.4715 0.2269 -0.0001
-0.2171 -0.3925 -0.5300 -0.6574 -0.7432 -0.8226
-0.9094 -0.9565 -0.9878 -1.0035 -1.0017 -1.0238
-1.0848 -1.1503 -1.2398 -1.3857 -1.5482 -1.7125
-1.8971 -2.0854 -2.2682 -2.4500 -2.6143 -2.7648
-2.8857 -2.9568 -2.9946 -3.0112 -3.0112 -2.9863
-2.9586 -2.9623 -2.9577 -2.9355 -2.9476 -2.9586
-2.9669 -2.9799 -2.9882 -3.0399 -3.0786 -3.1174
-3.1949 -3.2559 -3.3122 -3.3888 -3.4783 -3.5706
-3.6713 -3.7783 -3.9020 -4.0313 -4.1485 -4.2482
-4.3313 -4.3913 -4.4116 -4.4263 -4.4282 -4.4171
-4.4023 -4.3700 -4.3460 -4.3137 -4.2823 -4.2722
-4.2574 -4.2657 -4.2897 -4.3248 -4.3940 -4.4568
-4.5076 -4.5556 -4.5704 -4.5685 -4.5574 -4.5020
-4.4319 -4.3156 -4.1605 -4.0128 -3.8310 -3.6556
-3.4728 -3.2688 -3.0824 -2.8765 -2.6753 -2.4842
-2.2525 -1.9913 -1.7365 -1.4744 -1.2150 -0.9796
-0.7562 -0.5329 -0.3242 -0.1396 0.0321 0.1807
0.3117 0.4281 0.5361 0.6320 0.7234 0.8425
0.9893 1.1277 1.3003 1.5200 1.7388 2.0000
2.2613 2.5382 2.8465 3.1456 3.4502 3.7308
4.0086 4.3022 4.5846 4.8579 5.1246 5.3757
5.6065 5.8077 5.9831 6.1308 6.2240 6.2812
6.3098 6.3228 6.3264 6.3015 6.2526 6.2028
6.1474 6.0412 5.9397 5.8363 5.7117 5.6074
5.4708 5.3221 5.1661 4.9640 4.7388 4.5181
4.2975 4.0815 3.8609 3.6569 3.4714 3.2692
3.1049 2.9655 2.8188 2.6914 2.5880 2.4975
2.4117 2.3286 2.2317 2.1421 2.0609 1.9760
1.8994 1.8227 1.7258 1.6261 1.5311 1.4332
1.3307 1.2495 1.1637 1.0400 0.9320 0.8286
0.7169 0.5701 0.3984 0.2341 0.0347 -0.1785
-0.3899 -0.6216 -0.8579 -1.1034 -1.3729 -1.6351
-1.9009 -2.1622 -2.4114 -2.6708 -2.9080 -3.1296
-3.3289 -3.4896 -3.6456 -3.7914 -3.9225 -4.0462
-4.1422 -4.2059 -4.2613 -4.3019 -4.3056 -4.2908
-4.2206 -4.0970 -3.9548 -3.7563 -3.5330 -3.2967
-3.0345 -2.7650 -2.5093 -2.2693 -2.0570 -1.9047
-1.7985 -1.7394 -1.7108 -1.7422 -1.8244 -1.9176
-2.0690 -2.2314 -2.4151 -2.6431 -2.8739 -3.1158
-3.3779 -3.6779 -3.9733 -4.2687 -4.5927 -4.9194
-5.2342 -5.5277 -5.7890 -6.0401 -6.3050 -6.5348
-6.7693 -7.0148 -7.2484 -7.5133 -7.7736 -8.0293
-8.3145 -8.6007 -8.8637 -9.1222 -9.3585 -9.5616
-9.7527 -9.9207 -10.0517 -10.1570 -10.2484 -10.2844
-10.3019 -10.3001 -10.2456 -10.1847 -10.0674 -9.9382
-9.7942 -9.6096 -9.4324 -9.2201 -8.9884 -8.7318
-8.4742 -8.1964 -7.8318 -7.4432 -7.0361 -6.6022
-6.1546 -5.6875 -5.2139 -4.7063 -4.1820 -3.6780
-3.1758 -2.6746 -2.1761 -1.6832 -1.2041 -0.7352
-0.3106 0.1057 0.4869 0.8072 1.1285 1.3906
1.5974 1.7681 1.8771 1.9758 2.0331 2.0525
2.0801 2.0949 2.1023 2.0811 2.0571 2.0312
1.9823 1.9426 1.8641 1.7931 1.7432 1.6657
1.6057 1.5374 1.4607 1.3878 1.3371 1.3094
1.2715 1.2327 1.1774 1.1164 1.0546 1.0112
0.9650 0.8940 0.8626 0.8340 0.8174 0.8321
0.8367 0.8783 0.9198 0.9300 0.9577 0.9549
0.9078 0.8626 0.7804 0.6613 0.5293 0.3558
0.1712 0.0078 -0.1768 -0.3522 -0.5147 -0.6947
-0.8544 -1.0177 -1.1562 -1.2513 -1.3445 -1.4460
-1.5310 -1.5679 -1.5817 -1.5753 -1.5651 -1.5744
-1.5827 -1.5901 -1.5882 -1.5661 -1.5402 -1.5310
-1.5411 -1.5550 -1.5254 -1.4968 -1.4848 -1.4728
-1.4904 -1.5005 -1.4959 -1.5024 -1.4904 -1.4645
-1.4451 -1.4027 -1.3390 -1.2688 -1.1885 -1.1101
-1.0270 -0.9532 -0.8895 -0.8036 -0.7307 -0.6818
-0.6190 -0.5673 -0.5175 -0.4852 -0.4556 -0.3947
-0.3523 -0.3255 -0.2987 -0.2729 -0.2544 -0.2507
-0.2516 -0.2664 -0.2987 -0.3560 -0.4206 -0.4972
-0.5987 -0.6864 -0.7658 -0.8415 -0.8867 -0.9153
-0.9366 -0.9643 -1.0104 -1.0510 -1.0667 -1.0963
-1.1313 -1.1729 -1.2366 -1.2910 -1.3760 -1.4858
-1.5901 -1.7249 -1.8772 -2.0332 -2.1966 -2.3507
-2.5197 -2.6941 -2.8575 -3.0329 -3.2157 -3.3966
-3.5692 -3.7280 -3.8941 -4.0298 -4.1341 -4.2403
-4.2947 -4.3437 -4.3889 -4.4055 -4.4554 -4.5172
-4.5975 -4.6834 -4.7766 -4.9040 -5.0295 -5.1320
-5.2344 -5.3387 -5.3877 -5.4218 -5.4504 -5.4569
-5.4634 -5.4301 -5.3858 -5.3397 -5.2917 -5.2372
-5.2003 -5.1643 -5.1015 -5.0831 -5.0637 -5.0711
-5.0775 -5.0563 -5.0729 -5.0960 -5.1228 -5.1329
-5.1357 -5.1311 -5.1080 -5.0545 -4.9714 -4.8579
-4.7019 -4.5486 -4.3686 -4.1517 -3.9089 -3.6422
-3.3708 -3.0745 -2.7625 -2.4385 -2.0822 -1.7259
-1.3705 -0.9865 -0.5822 -0.1696 0.2495 0.6538
1.0249 1.3913 1.7439 2.0569 2.3578 2.6485
2.9301 3.1996 3.4378 3.6510 3.8504 4.0230
4.1818 4.3627 4.5141 4.6516 4.7993 4.9147
5.0236 5.1205 5.2239 5.3384 5.4436 5.5793
5.7417 5.8857 6.0547 6.2568 6.4710 6.7082
6.9491 7.1993 7.4273 7.6562 7.8740 8.0466
8.2174 8.3586 8.5008 8.6162 8.6909 8.7546
8.7888 8.8312 8.8525 8.8682 8.8737 8.8645
8.8358 8.7648 8.7260 8.6882 8.6217 8.5672
8.5294 8.5109 8.4971 8.4768 8.4546 8.4325
8.4020 8.3688 8.3161 8.2321 8.1352 8.0014
7.8583 7.6977 7.4974 7.2998 7.0534 6.8078
6.5900 6.3546 6.1174 5.8728 5.6438 5.3900
5.1592 4.9728 4.7558 4.5583 4.3958 4.2657
4.1392 4.0469 3.9740 3.9011 3.8928 3.8918
3.8872 3.8854 3.8660 3.8577 3.8447 3.8244
3.8171 3.7746 3.7247 3.6878 3.6149 3.5438
3.4866 3.4451 3.4109 3.3924 3.4164 3.4367
3.4977 3.5706 3.6278 3.7090 3.7783 3.8540
3.8890 3.9121 3.9573 3.9481 3.9186 3.8715
3.8244 3.7838 3.7349 3.6961 3.6500 3.6084
3.5604 3.5189 3.4884 3.4644 3.4533 3.4173
3.3878 3.3601 3.2853 3.1949 3.0813 2.9078
2.7066 2.4675 2.2044 1.9247 1.6312 1.3321
1.0118 0.7063 0.3887 0.0859 -0.2011 -0.5150
-0.8085 -1.1242 -1.4519 -1.7824 -2.1377 -2.4857
-2.8596 -3.2473 -3.6433 -4.0236 -4.3697 -4.7011
-5.0002 -5.3150 -5.6085 -5.8596 -6.0710 -6.2454
-6.4217 -6.5602 -6.6950 -6.8002 -6.8731 -6.9553
-6.9903 -7.0190 -7.0180 -6.9608 -6.8833 -6.7762
-6.6802 -6.5925 -6.5030 -6.4254 -6.3285 -6.2205
-6.1051 -5.9907 -5.8781 -5.7304 -5.5716 -5.4165
-5.2365 -5.0371 -4.8470 -4.6448 -4.4344 -4.2572
-4.1002 -3.9599 -3.8298 -3.7255 -3.6295 -3.5224
-3.4273 -3.3276 -3.2252 -3.1153 -2.9861 -2.8467
-2.6981 -2.5375 -2.3686 -2.2098 -2.0446 -1.8720
-1.7197 -1.5821 -1.4473 -1.3209 -1.1963 -1.0744
-0.9683 -0.8612 -0.7624 -0.6581 -0.5409 -0.4375
-0.3277 -0.2003 -0.0674 0.0812 0.2206 0.3646
0.5188 0.6628 0.8132 0.9406 1.0717 1.2009
1.3043 1.4031 1.4686 1.5388 1.5997 1.6458
1.6975 1.7280 1.7492 1.7668 1.7741 1.7963
1.8443 1.9200 2.0261 2.1249 2.2052 2.2791
2.3271 2.3427 2.3372 2.3215 2.2855 2.2015
2.1147 2.0307 1.9375 1.8729 1.8074 1.7612
1.7529 1.7464 1.7547 1.7630 1.7870 1.8212
1.8397 1.8747 1.8969 1.9043 1.9163 1.8867
1.8332 1.7815 1.6735 1.5535 1.4280 1.2710
1.1141 0.9221 0.7116 0.4883 0.2593 0.0193
-0.2327 -0.4745 -0.7127 -0.9351 -1.1400 -1.3108
-1.4751 -1.6080 -1.6893 -1.7244 -1.7234 -1.6957
-1.6164 -1.5287 -1.4364 -1.3284 -1.2130 -1.1041
-1.0090 -0.8936 -0.8022 -0.7311 -0.6656 -0.6102
-0.5613 -0.5096 -0.4505 -0.3961 -0.3158 -0.2170
-0.0841 0.0618 0.1947 0.3387 0.4541 0.5648
0.6830 0.7550 0.8353 0.9239 0.9701 0.9885
0.9682 0.9553 0.9368 0.8768 0.8011 0.7024
0.5833 0.4716 0.3525 0.2067 0.0747 -0.0583
-0.1958 -0.3343 -0.4672 -0.5752 -0.6767 -0.7478
-0.8050 -0.8632 -0.9361 -1.0118 -1.0764 -1.1613
-1.2564 -1.3764 -1.5047 -1.6284 -1.7678 -1.9210
-2.0586 -2.1906 -2.3217 -2.4250 -2.5229 -2.6244
-2.7075 -2.7832 -2.8783 -2.9577 -3.0297 -3.1118
-3.1746 -3.2484 -3.3389 -3.4349 -3.5244 -3.6250
-3.7690 -3.9020 -4.0450 -4.1863 -4.3146 -4.4743
-4.6275 -4.7964 -4.9607 -5.1158 -5.2792 -5.4389
-5.6023 -5.7509 -5.9014 -6.0250 -6.1330 -6.2244
-6.3020 -6.4017 -6.4626 -6.4921 -6.5263 -6.5660
-6.6057 -6.6251 -6.6287 -6.6232 -6.6251 -6.6195
-6.6038 -6.5974 -6.5632 -6.5263 -6.4903 -6.4081
-6.3260 -6.2318 -6.1026 -5.9577 -5.7925 -5.6374
-5.4740 -5.2903 -5.1066 -4.9248 -4.7429 -4.5399
-4.3294 -4.1245 -3.9205 -3.6943 -3.4525 -3.2171
-2.9651 -2.7177 -2.4676 -2.1879 -1.9183 -1.6608
-1.3608 -1.0396 -0.7165 -0.3473 0.0543 0.4669
0.8804 1.3013 1.6955 2.0712 2.4496 2.7875
3.1059 3.3699 3.6007 3.7908 3.9228 4.0216
4.0576 4.0705 4.0456 4.0142 3.9791 3.9201
3.8637 3.8028 3.7696 3.7188 3.6570 3.6164
3.5527 3.4853 3.4290 3.3413 3.2499 3.1521
3.0053 2.8548 2.6804 2.4579 2.2474 2.0425
1.8385 1.6345 1.4296 1.2450 1.0641 0.8933
0.7327 0.5748 0.4437 0.3450 0.2554 0.1622
0.0948 0.0228 -0.0547 -0.1396 -0.2320 -0.2975
-0.3833 -0.4821 -0.5800 -0.6833 -0.7812 -0.8984
-1.0323 -1.1633 -1.2861 -1.4366 -1.6018 -1.7652
-1.9535 -2.1317 -2.3015 -2.4704 -2.6218 -2.7658
-2.8877 -2.9910 -3.0750 -3.1258 -3.1618 -3.1858
-3.1821 -3.1674 -3.1590 -3.1286 -3.0981 -3.0778
-3.0575 -3.0289 -2.9643 -2.9181 -2.8812 -2.8092
-2.7335 -2.6431 -2.5231 -2.3652 -2.1741 -1.9674
-1.7468 -1.5197 -1.2751 -1.0083 -0.7434 -0.4748
-0.2080 0.0292 0.2563 0.4760 0.6588 0.8332
0.9929 1.1000 1.2191 1.3446 1.4646 1.6160
1.7674 1.9381 2.1181 2.2824 2.4763 2.6729
2.8658 3.0836 3.2812 3.4649 3.6523 3.8083
3.9541 4.0870 4.1978 4.3049 4.3741 4.4230
4.4609 4.4609 4.4415 4.4322 4.4055 4.3510
4.2947 4.2282 4.1452 4.0519 3.9375 3.8193
3.6993 3.5424 3.4039 3.2581 3.0790 2.8944
2.6858 2.4661 2.1882 1.8965 1.5947 1.2587
0.9365 0.5867 0.2405 -0.0982 -0.4388 -0.7647
-1.0804 -1.3702 -1.6499 -1.9158 -2.1567 -2.3718
-2.5804 -2.7530 -2.8868 -3.0022 -3.1019 -3.1896
-3.2450 -3.2902 -3.3151 -3.3050 -3.2736 -3.2256
-3.1425 -3.0641 -2.9598 -2.8075 -2.6828 -2.5379
-2.3893 -2.2296 -2.0312 -1.8401 -1.6056 -1.3638
-1.1201 -0.8727 -0.6586 -0.4103 -0.1739 0.0485
0.2857 0.5091 0.7270 0.9254 1.1220 1.2965
1.4793 1.6556 1.8042 1.9666 2.0866 2.1937
2.3036 2.3839 2.4494 2.4817 2.5057 2.5232
2.5011 2.4716 2.4392 2.3885 2.3460 2.3183
2.3026 2.3054 2.3285 2.3719 2.4235 2.4974
2.6118 2.7291 2.8278 2.9525 3.0798 3.1814
3.2995 3.4057 3.4989 3.5848 3.6540 3.7371
3.8063 3.8663 3.9521 4.0398 4.1294 4.2401
4.3527 4.4552 4.5521 4.6398 4.7026 4.7460
4.7958 4.8447 4.8826 4.9158 4.9500 4.9823
5.0053 5.0533 5.0949 5.1272 5.1826 5.2435
5.3284 5.4179 5.5186 5.6016 5.6755 5.7539
5.7909 5.8407 5.8924 5.9016 5.9044 5.9053
5.8767 5.8389 5.7779 5.7069 5.6182 5.4862
5.3469 5.2065 5.0736 4.9149 4.7552 4.6029
4.4515 4.3195 4.1644 4.0305 3.9161 3.7970
3.6770 3.5736 3.4970 3.4075 3.3345 3.2764
3.2035 3.1518 3.0955 3.0152 2.9441 2.8592
2.7595 2.6625 2.5388 2.3782 2.2130 2.0265
1.8244 1.6425 1.4238 1.2078 1.0158 0.7952
0.5865 0.3825 0.1905 0.0059 -0.1695 -0.3199
-0.4630 -0.5950 -0.6984 -0.7852 -0.8627 -0.9190
-0.9605 -0.9873 -1.0012 -1.0049 -1.0058 -0.9984
-0.9818 -0.9772 -0.9698 -0.9947 -1.0473 -1.1119
-1.2006 -1.2975 -1.3926 -1.4738 -1.5762 -1.6815
-1.7803 -1.8606 -1.9316 -2.0258 -2.0996 -2.1846
-2.2833 -2.3923 -2.5113 -2.6424 -2.7689 -2.8963
-3.0523 -3.1759 -3.2729 -3.3633 -3.4455 -3.5092
-3.5433 -3.5526 -3.5406 -3.5212 -3.4732 -3.4123
-3.3550 -3.2849 -3.1981 -3.1150 -3.0144 -2.9009
-2.8049 -2.6840 -2.5603 -2.4495 -2.3074 -2.1643
-2.0277 -1.8698 -1.7101 -1.5458 -1.3668 -1.1960
-1.0077 -0.8046 -0.6191 -0.4418 -0.2674 -0.1068
0.0151 0.1268 0.2043 0.2643 0.3095 0.3012
0.2985 0.2412 0.1637 0.0861 -0.0219 -0.1483
-0.3016 -0.4520 -0.6237 -0.7834 -0.9440 -1.0751
-1.1969 -1.3456 -1.4452 -1.5403 -1.6234 -1.7009
-1.7702 -1.8062 -1.8357 -1.8726 -1.8819 -1.8643
-1.8514 -1.7969 -1.7453 -1.7065 -1.6437 -1.5911
-1.5283 -1.4619 -1.4406 -1.4250 -1.3991 -1.3816
-1.3483 -1.3170 -1.2948 -1.2690 -1.2210 -1.1785
-1.1314 -1.0520 -0.9828 -0.9127 -0.8397 -0.7724
-0.7281 -0.6921 -0.6625 -0.6404 -0.6062 -0.6016
-0.5942 -0.5868 -0.5841 -0.5794 -0.5868 -0.5831
-0.5555 -0.5315 -0.5204 -0.5047 -0.4742 -0.4391
-0.4225 -0.3570 -0.2813 -0.2176 -0.0948 0.0150
0.1230 0.2624 0.4091 0.5384 0.6667 0.8061
0.9288 1.0682 1.1891 1.3036 1.4107 1.5196
1.6331 1.7448 1.8584 1.9304 2.0180 2.1113
2.1823 2.2959 2.4251 2.5673 2.7270 2.8793
3.0676 3.2310 3.3796 3.5448 3.6657 3.8162
3.9537 4.0608 4.1660 4.2316 4.3045 4.3728
4.4420 4.4937 4.5085 4.5362 4.5749 4.6174
4.6682 4.7152 4.7614 4.7974 4.8122 4.8509
4.8851 4.9128 4.9672 4.9958 5.0217 5.0392
5.0420 5.0364 5.0051 4.9764 4.9284 4.8804
4.8297 4.7632 4.6977 4.6349 4.6072 4.5583
4.5112 4.5121 4.5029 4.4983 4.5251 4.5684
4.6017 4.6635 4.7475 4.8066 4.8712 4.9340
5.0004 5.0604 5.0918 5.1057 5.1103 5.1204
5.1140 5.0946 5.0835 5.0715 5.0466 4.9847
4.9284 4.8693 4.7835 4.7050 4.5952 4.4936
4.3718 4.2158 4.0893 3.9213 3.7561 3.6103
3.4312 3.2484 3.0675 2.8921 2.6983 2.5090
2.3355 2.1583 2.0050 1.8666 1.7383 1.6256
1.5352 1.4743 1.4143 1.3709 1.3275 1.2749
1.2546 1.2130 1.1761 1.1512 1.0986 1.0469
0.9656 0.8678 0.7662 0.6518 0.5392 0.3942
0.2189 0.0527 -0.1282 -0.3285 -0.5150 -0.7153
-0.9424 -1.1713 -1.4104 -1.6587 -1.9098 -2.1673
-2.4128 -2.6408 -2.8679 -3.0710 -3.2473 -3.4319
-3.6027 -3.7522 -3.9073 -4.0578 -4.1999 -4.3421
-4.4694 -4.5885 -4.7030 -4.8221 -4.9485 -5.0547
-5.1535 -5.2384 -5.3085 -5.3731 -5.4267 -5.4784
-5.5301 -5.5771 -5.6371 -5.7230 -5.7922 -5.8670
-5.9805 -6.0996 -6.2399 -6.4070 -6.5768 -6.7652
-6.9710 -7.1695 -7.3873 -7.6208 -7.8507 -8.0925
-8.3408 -8.5882 -8.8402 -9.0904 -9.3239 -9.5648
-9.7919 -9.9895 -10.1962 -10.3753 -10.5175 -10.6495
-10.7611 -10.8544 -10.9384 -11.0021 -11.0353 -11.0676
-11.1055 -11.1368 -11.1590 -11.1581 -11.1645 -11.1719
-11.1489 -11.1313 -11.0889 -11.0362 -11.0002 -10.9273
-10.8424 -10.7658 -10.6910 -10.6190 -10.5332 -10.4344
-10.3403 -10.2516 -10.1519 -10.0532 -9.9581 -9.8510
-9.7467 -9.6378 -9.5132 -9.4227 -9.3166 -9.1910
-9.0747 -8.9483 -8.8218 -8.6584 -8.4969 -8.3224
-8.1517 -8.0040 -7.8009 -7.6255 -7.4538 -7.2508
-7.0514 -6.8391 -6.6240 -6.3978 -6.1726 -5.9483
-5.7129 -5.4702 -5.2375 -5.0059 -4.7575 -4.5019
-4.2785 -4.0680 -3.8382 -3.6333 -3.4237 -3.2179
-3.0074 -2.7794 -2.5440 -2.2837 -2.0225 -1.7419
-1.4640 -1.1871 -0.8964 -0.6241 -0.3647 -0.1117
0.1375 0.3701 0.6092 0.8464 1.0633 1.2756
1.4861 1.7113 1.9190 2.1350 2.3741 2.5799
2.7738 2.9916 3.1947 3.3654 3.5454 3.7088
3.8491 3.9959 4.1381 4.2950 4.4325 4.5544
4.7057 4.8460 4.9790 5.1027 5.2070 5.3140
5.3925 5.4488 5.4940 5.5457 5.5808 5.5697
5.5743 5.5660 5.5291 5.4922 5.4654 5.4193
5.3777 5.3482 5.2845 5.2568 5.2457 5.2291
5.2346 5.2152 5.2042 5.2143 5.1903 5.1534
5.1100 5.0315 4.9549 4.8589 4.7362 4.6226
4.4999 4.3900 4.2894 4.2008 4.1343 4.0706
4.0226 3.9654 3.9091 3.8795 3.8435 3.7900
3.7328 3.6912 3.6460 3.6008 3.5482 3.4734
3.4208 3.3700 3.2915 3.2269 3.1678 3.0958
3.0368 2.9703 2.9075 2.8669 2.8134 2.7515
2.7109 2.6721 2.6500 2.6481 2.6481 2.6703
2.6795 2.6804 2.6767 2.6657 2.6611 2.6361
2.6204 2.6066 2.5771 2.5475 2.5170 2.4967
2.4690 2.4192 2.3786 2.3500 2.3214 2.3149
2.2983 2.2844 2.2826 2.2530 2.2346 2.2226
2.2124 2.1847 2.1284 2.0878 2.0463 1.9927
1.9244 1.8487 1.7620 1.6456 1.5349 1.4130
1.2635 1.1084 0.9598 0.8047 0.6404 0.4927
0.3607 0.2426 0.1447 0.0478 -0.0454 -0.1239
-0.2024 -0.2753 -0.3584 -0.4424 -0.5282 -0.6371
-0.7497 -0.8633 -0.9842 -1.1107 -1.2307 -1.3562
-1.4873 -1.6147 -1.7337 -1.8584 -1.9885 -2.0956
-2.1999 -2.3014 -2.3891 -2.4759 -2.5368 -2.5811
-2.6199 -2.6282 -2.6347 -2.6411 -2.6310 -2.6079
-2.5747 -2.5488 -2.5138 -2.4861 -2.4547 -2.4122
-2.3679 -2.3162 -2.2636 -2.1759 -2.0882 -1.9784
-1.8584 -1.7402 -1.5870 -1.4467 -1.2898 -1.1449
-1.0101 -0.8679 -0.7359 -0.5864 -0.4738 -0.3640
-0.2624 -0.1876 -0.1009 -0.0538 -0.0280 -0.0030
0.0071 0.0090 -0.0067 0.0007 0.0080 0.0108
0.0330 0.0394 0.0514 0.0643 0.0477 0.0293
0.0090 -0.0252 -0.0575 -0.0861 -0.1277 -0.1674
-0.2006 -0.2246 -0.2440 -0.2597 -0.2504 -0.2606
-0.2791 -0.2560 -0.2551 -0.2560 -0.2421 -0.2338
-0.2043 -0.1701 -0.1314 -0.0935 -0.0271 0.0385
0.0883 0.1557 0.2166 0.3052 0.3809 0.4308
0.4935 0.5554 0.6126 0.6846 0.7437 0.7880
0.8683 0.9292 0.9948 1.0788 1.1360 1.2117
1.2717 1.3418 1.4138 1.4544 1.5107 1.5412
1.5606 1.5634 1.5606 1.5670 1.5606 1.5763
1.6003 1.6261 1.6446 1.6815 1.7249 1.7563
1.8236 1.8901 1.9520 2.0221 2.0756 2.1116
2.1486 2.1569 2.1476 2.1541 2.1292 2.0904
2.0433 1.9916 1.9261 1.8522 1.7969 1.7369
1.6990 1.6473 1.6086 1.5984 1.5873 1.6002
1.6187 1.6529 1.6750 1.7202 1.7876 1.8310
1.8753 1.9085 1.9344 1.9372 1.9344 1.9196
1.8725 1.8042 1.7193 1.6390 1.5402 1.4368
1.3344 1.2273 1.1202 1.0076 0.9033 0.8147
0.7408 0.6928 0.6458 0.5922 0.5581 0.5230
0.4934 0.4611 0.4288 0.4141 0.4131 0.4076
0.3901 0.4057 0.4307 0.4593 0.4999 0.5276
0.5885 0.6799 0.7722 0.8691 0.9827 1.0879
1.1876 1.3030 1.4073 1.5106 1.5919 1.6676
1.7414 1.7839 1.8346 1.8651 1.8697 1.8725
1.8429 1.7866 1.7543 1.7073 1.6380 1.5780
1.4912 1.4128 1.3556 1.3029 1.2632 1.2420
1.2439 1.2512 1.2706 1.3048 1.3491 1.3915
1.4322 1.4912 1.5448 1.6177 1.6878 1.7257
1.7746 1.8282 1.8798 1.9149 1.9537 1.9768
1.9721 1.9841 1.9860 1.9481 1.8983 1.8475
1.7709 1.6841 1.5928 1.4857 1.3758 1.2374
1.0823 0.9124 0.7214 0.5451 0.3475 0.1334
-0.0734 -0.2700 -0.4500 -0.6485 -0.8423 -1.0196
-1.1885 -1.3500 -1.5023 -1.6325 -1.7728 -1.9159
-2.0396 -2.1632 -2.2851 -2.3922 -2.4965 -2.6017
-2.6968 -2.7900 -2.8906 -2.9663 -3.0402 -3.1297
-3.2109 -3.2885 -3.3503 -3.4048 -3.4297 -3.4473
-3.4805 -3.4777 -3.4694 -3.4473 -3.4177 -3.4039
-3.3799 -3.3411 -3.3023 -3.2793 -3.2396 -3.2128
-3.1897 -3.1565 -3.1408 -3.1131 -3.0873 -3.0660
-3.0384 -2.9913 -2.9461 -2.9064 -2.8667 -2.8261
-2.7854 -2.7504 -2.6950 -2.6359 -2.5630 -2.4984
-2.4218 -2.3184 -2.2335 -2.1310 -2.0387 -1.9538
-1.8688 -1.7968 -1.7488 -1.7202 -1.6852 -1.6667
-1.6621 -1.6695 -1.6916 -1.7285 -1.7636 -1.7969
-1.8430 -1.8882 -1.9445 -1.9769 -1.9981 -2.0193
-2.0110 -2.0027 -1.9621 -1.9169 -1.8504 -1.7323
-1.6021 -1.4369 -1.2809 -1.1101 -0.8987 -0.6818
-0.4566 -0.2341 -0.0061 0.2219 0.4166 0.6086
0.8163 0.9677 1.1099 1.2622 1.4016 1.5557
1.6766 1.8059 1.9452 2.0772 2.2277 2.3615
2.5157 2.6560 2.7797 2.9218 3.0455 3.1738
3.2735 3.3381 3.4055 3.4388 3.4249 3.3991
3.3677 3.3058 3.2117 3.1175 3.0215 2.9191
2.8461 2.7668 2.6994 2.6837 2.6957 2.7123
2.7474 2.8286 2.9191 3.0114 3.1212 3.2357
3.3686 3.4849 3.5689 3.6778 3.7720 3.8292
3.8763 3.8929 3.8855 3.8624 3.8135 3.7507
3.6760 3.5910 3.5015 3.4129 3.3270 3.2430
3.1646 3.1230 3.1073 3.0963 3.0981 3.0953
3.1119 3.1359 3.1443 3.1433 3.1193 3.0907
3.0612 3.0012 2.9402 2.8729 2.7824 2.7039
2.6015 2.4990 2.3892 2.2766 2.1898 2.0984
2.0089 1.9239 1.8519 1.7679 1.6959 1.6295
1.5695 1.5132 1.4375 1.4033 1.3729 1.3212
1.3119 1.3045 1.2741 1.2501 1.2390 1.2344
1.1993 1.1753 1.1467 1.1070 1.0728 1.0091
0.9731 0.9104 0.8291 0.7516 0.6510 0.5808
0.4858 0.3879 0.2882 0.1830 0.0879 -0.0330
-0.1549 -0.3099 -0.4650 -0.6007 -0.7586 -0.9118
-1.0558 -1.1813 -1.3152 -1.4555 -1.5939 -1.7389
-1.8681 -1.9936 -2.1284 -2.2530 -2.3739 -2.4875
-2.5946 -2.7229 -2.8466 -2.9739 -3.1059 -3.2315
-3.3699 -3.5047 -3.6423 -3.7872 -3.9339 -4.0779
-4.2183 -4.3632 -4.5339 -4.6992 -4.8543 -5.0269
-5.1783 -5.3306 -5.4727 -5.5890 -5.6924 -5.8032
-5.9213 -5.9952 -6.0681 -6.1346 -6.1909 -6.2546
-6.3063 -6.3423 -6.3709 -6.4078 -6.4309 -6.4466
-6.4540 -6.4558 -6.4466 -6.3958 -6.3386 -6.2592
-6.1558 -6.0201 -5.8632 -5.7192 -5.5604 -5.4007
-5.2364 -5.0694 -4.9161 -4.7666 -4.6328 -4.5054
-4.3946 -4.2737 -4.1343 -4.0318 -3.9294 -3.8177
-3.7355 -3.6488 -3.5611 -3.4697 -3.3765 -3.2971
-3.2039 -3.1291 -3.0663 -3.0045 -2.9482 -2.8734
-2.8217 -2.7792 -2.7045 -2.6463 -2.5808 -2.5217
-2.4811 -2.3842 -2.2993 -2.2236 -2.1165 -1.9983
-1.8663 -1.7565 -1.6245 -1.4870 -1.3467 -1.1842
-1.0300 -0.8657 -0.7107 -0.5371 -0.3516 -0.1587
0.0278 0.1976 0.3933 0.5789 0.7561 0.9010
1.0367 1.1733 1.2444 1.3201 1.3865 1.4133
1.4290 1.4235 1.4133 1.4022 1.3948 1.3865
1.3893 1.4041 1.4382 1.4862 1.5388 1.5961
1.6635 1.7641 1.8610 1.9514 2.0511 2.1656
2.2644 2.3594 2.4739 2.5699 2.6742 2.7656
2.8496 2.9410 3.0222 3.0850 3.1570 3.2687
3.3591 3.4523 3.5234 3.5917 3.6757 3.7403
3.8151 3.8631 3.9305 3.9813 4.0043 4.0514
4.0902 4.1216 4.1409 4.1529 4.1612 4.1566
4.1326 4.0994 4.0422 3.9692 3.8751 3.7579
3.6314 3.4505 3.2539 3.0351 2.7840 2.5523
2.3114 2.0585 1.8351 1.6136 1.4003 1.2249
1.0394 0.8686 0.7052 0.5391 0.4052 0.2474
0.0988 -0.0452 -0.2104 -0.3415 -0.4726 -0.5834
-0.6904 -0.8031 -0.8908 -0.9821 -1.0680 -1.1557
-1.2231 -1.2868 -1.3458 -1.3791 -1.4215 -1.4631
-1.4991 -1.5120 -1.4963 -1.4862 -1.4631 -1.4308
-1.3994 -1.3329 -1.2757 -1.2194 -1.1363 -1.0551
-0.9720 -0.8880 -0.8142 -0.7292 -0.6471 -0.5816
-0.4985 -0.4062 -0.3185 -0.2262 -0.1311 -0.0305
0.0664 0.1421 0.2197 0.3147 0.3877 0.4329
0.4652 0.4929 0.5067 0.4929 0.4633 0.4209
0.3507 0.2852 0.2021 0.0996 0.0249 -0.0684
-0.1699 -0.2687 -0.3674 -0.4551 -0.5604 -0.6545
-0.7570 -0.8705 -0.9794 -1.1114 -1.2296 -1.3607
-1.5037 -1.6302 -1.7705 -1.9164 -2.0844 -2.2348
-2.3834 -2.5505 -2.7084 -2.8921 -3.0767 -3.2317
-3.3868 -3.5447 -3.6822 -3.8225 -3.9610 -4.0644
-4.1751 -4.2831 -4.3708 -4.4677 -4.5637 -4.6524
-4.7271 -4.8176 -4.9274 -5.0105 -5.1102 -5.2210
-5.3022 -5.3954 -5.4804 -5.5496 -5.6096 -5.6382
-5.6484 -5.6530 -5.6345 -5.6151 -5.5847 -5.5155
-5.4342 -5.3493 -5.2496 -5.1462 -5.0539 -4.9404
-4.8130 -4.6893 -4.5601 -4.4272 -4.2869 -4.1539
-4.0044 -3.8373 -3.6887 -3.5613 -3.4441 -3.3223
-3.1921 -3.0740 -2.9816 -2.8746 -2.7684 -2.7010
-2.6170 -2.5386 -2.4583 -2.3743 -2.2986 -2.1998
-2.1287 -2.0577 -1.9561 -1.8297 -1.6921 -1.5371
-1.3571 -1.1937 -1.0146 -0.8429 -0.6804 -0.4921
-0.3001 -0.1183 0.0571 0.2186 0.3663 0.5177
0.6543 0.7909 0.9183 1.0429 1.1491 1.2257
1.3263 1.4168 1.4989 1.5866 1.6568 1.7380
1.8081 1.8866 1.9724 2.0435 2.1367 2.2290
2.3214 2.4155 2.4967 2.5955 2.6989 2.8041
2.9278 3.0349 3.1475 3.2841 3.4106 3.5536
3.7060 3.8656 4.0170 4.1795 4.3743 4.5386
4.6982 4.8699 5.0315 5.1810 5.3287 5.4745
5.6139 5.7561 5.8927 6.0192 6.1502 6.2868
6.4004 6.5351 6.6588 6.7613 6.8822 6.9782
7.0539 7.1010 7.1444 7.1942 7.2025 7.1924
7.1868 7.1481 7.0779 6.9856 6.8776 6.7807
6.6625 6.5250 6.4068 6.2896 6.1724 6.0644
5.9840 5.9028 5.7893 5.6951 5.6084 5.5188
5.4210 5.3194 5.2262 5.1219 5.0268 4.9290
4.8440 4.7600 4.6696 4.5902 4.4859 4.3816
4.2856 4.1490 4.0059 3.8573 3.6717 3.4788
3.2748 3.0607 2.8373 2.6028 2.3683 2.1523
1.9465 1.7287 1.5320 1.3530 1.1951 1.0594
0.9154 0.7853 0.6634 0.5222 0.4050 0.3025
0.1687 0.0468 -0.0677 -0.1941 -0.3049 -0.4018
-0.5135 -0.6160 -0.7074 -0.8043 -0.8818 -0.9529
-1.0194 -1.0803 -1.1394 -1.1874 -1.2372 -1.3000
-1.3535 -1.4227 -1.4929 -1.5492 -1.6120 -1.6637
-1.7431 -1.8123 -1.8815 -1.9655 -2.0126 -2.0698
-2.1372 -2.2101 -2.2923 -2.3569 -2.4363 -2.5138
-2.5554 -2.6071 -2.6541 -2.6717 -2.6855 -2.7049
-2.7040 -2.6874 -2.6763 -2.6348 -2.5840 -2.5351
-2.4677 -2.4215 -2.3717 -2.3191 -2.2794 -2.2166
-2.1409 -2.0763 -2.0099 -1.9434 -1.8834 -1.8252
-1.7828 -1.7606 -1.7532 -1.7440 -1.7597 -1.7699
-1.7736 -1.8086 -1.8169 -1.8419 -1.8733 -1.8788
-1.8880 -1.8899 -1.8936 -1.8834 -1.8843 -1.8733
-1.8788 -1.8991 -1.8705 -1.8714 -1.8723 -1.8825
-1.9028 -1.9028 -1.9351 -1.9397 -1.9527 -1.9822
-1.9924 -2.0237 -2.0570 -2.0708 -2.0754 -2.0791
-2.0662 -2.0487 -2.0071 -1.9361 -1.8557 -1.7616
-1.6619 -1.5465 -1.4358 -1.3148 -1.1810 -1.0582
-0.9373 -0.8247 -0.7158 -0.6225 -0.5256 -0.4250
-0.3336 -0.2561 -0.1702 -0.0669 0.0236 0.1150
0.2119 0.3384 0.4547 0.5590 0.6910 0.7944
0.8904 1.0094 1.1073 1.2014 1.3021 1.3888
1.4848 1.5799 1.6953 1.7950 1.8743 1.9823
2.0728 2.1688 2.2630 2.3313 2.4070 2.4910
2.5768 2.6525 2.7125 2.7725 2.8380 2.8934
2.9543 3.0309 3.1085 3.1842 3.2617 3.3614
3.4823 3.5839 3.6854 3.7943 3.8774 3.9605
4.0352 4.0731 4.1035 4.1220 4.1174 4.1137
4.0685 4.0122 3.9872 3.9318 3.8857 3.8441
3.7998 3.7832 3.7629 3.7528 3.7343 3.7204
3.7075 3.6946 3.6983 3.7001 3.7038 3.7066
3.7121 3.7057 3.6992 3.6881 3.6604 3.6161
3.5617 3.4998 3.4204 3.3161 3.2155 3.1186
3.0041 2.9035 2.7909 2.6977 2.6026 2.4927
2.4374 2.3469 2.2574 2.2075 2.1318 2.0598
1.9933 1.9204 1.8429 1.7635 1.6813 1.6020
1.5337 1.4644 1.4072 1.3740 1.3370 1.2900
1.2493 1.2078 1.1570 1.1081 1.0546 0.9752
0.8810 0.7832 0.6715 0.5543 0.4407 0.3272
0.2044 0.0881 -0.0181 -0.1445 -0.2525 -0.3457
-0.4519 -0.5525 -0.6605 -0.7528 -0.8387 -0.9328
-1.0011 -1.0888 -1.1894 -1.2605 -1.3270 -1.3990
-1.4654 -1.5245 -1.5799 -1.6288 -1.6722 -1.7156
-1.7664 -1.8254 -1.8688 -1.8984 -1.9455 -2.0101
-2.0581 -2.1116 -2.1633 -2.2067 -2.2750 -2.3221
-2.3710 -2.4171 -2.4319 -2.4559 -2.4688 -2.4799
-2.4753 -2.4402 -2.4218 -2.3932 -2.3285 -2.2639
-2.1689 -2.0599 -1.9612 -1.8430 -1.7193 -1.5910
-1.4526 -1.2966 -1.1683 -1.0538 -0.9144 -0.7907
-0.6680 -0.5553 -0.4593 -0.3615 -0.2720 -0.1686
-0.0901 0.0031 0.1240 0.2108 0.3290 0.4646
0.5782 0.6973 0.8339 0.9613 1.0637 1.1809
1.2899 1.3757 1.4791 1.5585 1.6314 1.6969
1.7366 1.7902 1.8197 1.8520 1.8862 1.9055
1.9314 1.9378 1.9332 1.9360 1.9342 1.9138
1.9009 1.8769 1.8363 1.7929 1.7135 1.6397
1.5649 1.4366 1.3129 1.2261 1.1283 1.0323
0.9492 0.8643 0.8052 0.7609 0.7295 0.6981
0.6861 0.6963 0.6852 0.7000 0.7018 0.6991
0.7166 0.7111 0.7231 0.7424 0.7627 0.7849
0.8181 0.8440 0.8634 0.9049 0.9335 0.9621
1.0018 1.0221 1.0230 1.0360 1.0332 1.0083
0.9880 0.9390 0.8836 0.8227 0.7452 0.6538
0.5384 0.4129 0.2901 0.1636 0.0196 -0.1197
-0.2444 -0.3560 -0.4705 -0.5748 -0.6505 -0.7484
-0.8268 -0.8896 -0.9441 -0.9837 -1.0714 -1.1388
-1.1767 -1.2357 -1.2884 -1.3197 -1.3456 -1.3585
-1.3853 -1.4074 -1.3973 -1.4204 -1.4259 -1.4388
-1.4573 -1.4628 -1.5016 -1.5090 -1.5330 -1.5681
-1.5828 -1.6078 -1.6133 -1.6290 -1.6179 -1.5995
-1.5792 -1.5182 -1.4933 -1.4453 -1.3770 -1.3382
-1.2829 -1.2432 -1.2053 -1.1739 -1.1416 -1.0918
-1.0632 -1.0502 -1.0235 -0.9949 -0.9875 -0.9819
-0.9764 -0.9838 -0.9755 -0.9506 -0.9386 -0.9450
-0.9376 -0.9183 -0.9063 -0.9090 -0.9164 -0.8952
-0.8860 -0.8924 -0.9026 -0.9266 -0.9312 -0.9561
-0.9801 -1.0115 -1.0863 -1.1620 -1.2414 -1.3244
-1.4094 -1.4961 -1.5847 -1.6863 -1.7952 -1.8995
-1.9955 -2.1026 -2.2143 -2.3223 -2.4367 -2.5309
-2.6287 -2.7386 -2.8281 -2.9334 -3.0312 -3.1078
-3.2029 -3.3044 -3.3894 -3.4817 -3.5860 -3.6727
-3.7817 -3.8832 -3.9691 -4.0863 -4.1869 -4.2728
-4.3540 -4.4361 -4.5026 -4.5783 -4.6540 -4.6844
-4.7334 -4.7758 -4.8211 -4.8386 -4.8432 -4.8894
-4.8848 -4.8875 -4.8848 -4.8672 -4.8534 -4.8331
-4.8285 -4.7943 -4.7583 -4.7278 -4.7066 -4.6743
-4.6383 -4.6014 -4.5377 -4.4759 -4.4029 -4.3466
-4.2857 -4.2091 -4.1131 -4.0236 -3.9589 -3.8611
-3.7660 -3.6719 -3.5703 -3.4642 -3.3590 -3.2593
-3.1586 -3.0700 -2.9620 -2.8540 -2.7516 -2.6491
-2.5467 -2.4248 -2.3057 -2.1682 -2.0316 -1.8885
-1.7131 -1.5599 -1.4094 -1.2387 -1.0799 -0.9414
-0.8104 -0.6830 -0.5602 -0.4338 -0.3258 -0.2076
-0.0931 0.0250 0.1708 0.3010 0.4358 0.5964
0.7791 0.9435 1.1105 1.2905 1.4474 1.6118
1.7714 1.9099 2.0465 2.1674 2.2782 2.3853
2.4693 2.5514 2.6197 2.6742 2.7259 2.7647
2.7914 2.7960 2.7960 2.7923 2.7767 2.7563
2.7222 2.6843 2.6280 2.5588 2.4933 2.4194
2.3326 2.2154 2.1019 1.9893 1.8628 1.7234
1.5610 1.4206 1.2757 1.1225 0.9970 0.8908
0.7874 0.7071 0.6619 0.5982 0.5502 0.5354
0.5133 0.5179 0.5225 0.5372 0.5686 0.5880
0.6286 0.6646 0.6932 0.7265 0.7579 0.7809
0.8049 0.8354 0.8631 0.8742 0.8769 0.9102
0.9388 0.9702 1.0025 1.0394 1.0920 1.1326
1.1732 1.2046 1.2415 1.2674 1.2914 1.2941
1.2692 1.2581 1.2111 1.1511 1.0800 0.9914
0.9018 0.8012 0.6858 0.5612 0.4311 0.2834
0.1431 0.0027 -0.1449 -0.2806 -0.3997 -0.5234
-0.6554 -0.7800 -0.8936 -1.0025 -1.1123 -1.2093
-1.3071 -1.3985 -1.4788 -1.5702 -1.6671 -1.7502
-1.8203 -1.9043 -1.9976 -2.0733 -2.1591 -2.2588
-2.3391 -2.4314 -2.5228 -2.6114 -2.6936 -2.7434
-2.8099 -2.8717 -2.9123 -2.9373 -2.9567 -3.0019
-3.0056 -3.0000 -3.0287 -3.0185 -3.0167 -3.0102
-2.9742 -2.9447 -2.9013 -2.8607 -2.8071 -2.7453
-2.6788 -2.5985 -2.5182 -2.4434 -2.3539 -2.2745
-2.1905 -2.0816 -1.9911 -1.8868 -1.7862 -1.6819
-1.5647 -1.4475 -1.3302 -1.2213 -1.0948 -0.9813
-0.8622 -0.7293 -0.6167 -0.5216 -0.4312 -0.3472
-0.2844 -0.2272 -0.1662 -0.1127 -0.0619 -0.0084
0.0442 0.1097 0.1744 0.2381 0.2999 0.3451
0.4033 0.4596 0.4873 0.5122 0.5417 0.5408
0.5288 0.5214 0.5140 0.4808 0.4208 0.3617
0.2750 0.1854 0.1060 0.0017 -0.1007 -0.1820
-0.2807 -0.3749 -0.4534 -0.5309 -0.5890 -0.6509
-0.6832 -0.7118 -0.7423 -0.7404 -0.7497 -0.7349
-0.7164 -0.6897 -0.6629 -0.6417 -0.5937 -0.5411
-0.4931 -0.4561 -0.3971 -0.3325 -0.2872 -0.2420
-0.2023 -0.1718 -0.1478 -0.1202 -0.1008 -0.0915
-0.0722 -0.0638 -0.0648 -0.0703 -0.0777 -0.0814
-0.1045 -0.1202 -0.1377 -0.1737 -0.2235 -0.2789
-0.3205 -0.3519 -0.3925 -0.4303 -0.4516 -0.4876
-0.5162 -0.5439 -0.5854 -0.6085 -0.6482 -0.6759
-0.6962 -0.7294 -0.7248 -0.7211 -0.7386 -0.7386
-0.7433 -0.7396 -0.7359 -0.7276 -0.6953 -0.6768
-0.6353 -0.5891 -0.5642 -0.4977 -0.4100 -0.3020
-0.2051 -0.1276 -0.0002 0.1300 0.2481 0.3866
0.5019 0.6090 0.7272 0.8324 0.9450 1.0558
1.1490 1.2422 1.3032 1.3641 1.4444 1.5164
1.5838 1.6364 1.6927 1.7721 1.8625 1.9336
1.9973 2.0564 2.1007 2.1201 2.1311 2.1681
2.1847 2.1967 2.1902 2.1588 2.1459 2.1191
2.0942 2.0804 2.0564 2.0361 2.0185 2.0314
2.0739 2.0942 2.0924 2.0730 2.0490 2.0462
2.0333 2.0370 2.0250 1.9659 1.9170 1.8680
1.8376 1.7997 1.7462 1.7093 1.6567 1.6087
1.5708 1.5376 1.5182 1.4803 1.4314 1.4010
1.3668 1.3446 1.3382 1.3206 1.3253 1.3548
1.3631 1.3622 1.3926 1.4369 1.4443 1.4453
1.4637 1.4813 1.5080 1.5394 1.5477 1.5191
1.4979 1.4748 1.4406 1.4286 1.4314 1.4305
1.3779 1.3428 1.3169 1.2975 1.2939 1.2431
1.2126 1.1711 1.1471 1.1305 1.0797 1.0483
0.9929 0.9329 0.8637 0.8083 0.7797 0.7428
0.7105 0.6514 0.5914 0.5646 0.5351 0.4871
0.4391 0.3920 0.3578 0.3200 0.2895 0.2609
0.2028 0.1852 0.1723 0.1280 0.0901 0.0551
0.0200 -0.0123 -0.0169 -0.0446 -0.0899 -0.1222
-0.1637 -0.1933 -0.2237 -0.2634 -0.3077 -0.3622
-0.4010 -0.4250 -0.4545 -0.4960 -0.5459 -0.5837
-0.6068 -0.6391 -0.6862 -0.7434 -0.8062 -0.8422
-0.8625 -0.8763 -0.8902 -0.9225 -0.9474 -0.9760
-0.9834 -0.9539 -0.9400 -0.9391 -0.9567 -0.9779
-0.9770 -0.9862 -1.0001 -1.0176 -1.0554 -1.0970
-1.1302 -1.1745 -1.2188 -1.2558 -1.2807 -1.3019
-1.3398 -1.3591 -1.3601 -1.3444 -1.3148 -1.3019
-1.2696 -1.2244 -1.1921 -1.1339 -1.0813 -1.0453
-0.9973 -0.9585 -0.9142 -0.8570 -0.8108 -0.7739
-0.7324 -0.6955 -0.6410 -0.5810 -0.5644 -0.5339
-0.4896 -0.4601 -0.4158 -0.3715 -0.3179 -0.2561
-0.2183 -0.1666 -0.0761 0.0199 0.1104 0.2017
0.3079 0.4334 0.5719 0.7122 0.8294 0.9420
1.0703 1.1700 1.2651 1.3786 1.4783 1.5522
1.6270 1.7248 1.8088 1.8873 1.9731 2.0423
2.1116 2.1900 2.2712 2.3765 2.4623 2.5491
2.6571 2.7402 2.8463 2.9599 3.0697 3.1555
3.2285 3.3115 3.3882 3.4795 3.5681 3.6512
3.7140 3.7712 3.8183 3.8903 3.9891 4.0758
4.1820 4.2595 4.3647 4.4894 4.5817 4.7137
4.8300 4.9094 4.9980 5.0681 5.1189 5.1872
5.2444 5.2666 5.2777 5.2915 5.2989 5.2823
5.2564 5.2066 5.1503 5.0921 5.0330 4.9721
4.8918 4.8106 4.7266 4.6407 4.5318 4.4478
4.3804 4.2853 4.1930 4.1044 4.0047 3.8930
3.8063 3.6853 3.5404 3.4241 3.2875 3.1389
3.0161 2.9072 2.7733 2.6229 2.4844 2.3607
2.2481 2.1419 2.0469 1.9610 1.8622 1.7755
1.6878 1.5706 1.4672 1.3749 1.2733 1.1432
1.0204 0.8875 0.7444 0.6189 0.4582 0.3106
0.1776 0.0318 -0.0993 -0.2294 -0.3559 -0.4722
-0.5922 -0.7011 -0.7907 -0.8996 -0.9928 -1.0722
-1.1710 -1.2522 -1.3039 -1.3519 -1.4156 -1.4488
-1.4535 -1.4627 -1.4710 -1.4599 -1.4525 -1.4775
-1.4784 -1.4812 -1.4830 -1.4775 -1.5089 -1.5301
-1.5661 -1.6224 -1.6639 -1.7138 -1.7489 -1.8015
-1.8762 -1.9529 -2.0544 -2.1402 -2.2436 -2.3701
-2.5021 -2.6359 -2.7615 -2.9064 -3.0319 -3.1639
-3.3079 -3.4270 -3.5322 -3.6384 -3.7519 -3.8332
-3.9227 -3.9984 -4.0436 -4.1036 -4.1479 -4.1923
-4.2153 -4.2393 -4.2587 -4.2559 -4.2790 -4.2929
-4.2864 -4.2753 -4.2689 -4.2532 -4.2273 -4.2006
-4.1738 -4.1406 -4.1046 -4.0520 -3.9744 -3.9043
-3.8009 -3.7049 -3.6227 -3.5258 -3.4483 -3.3643
-3.2858 -3.2064 -3.1372 -3.0864 -3.0080 -2.9332
-2.8778 -2.8095 -2.7560 -2.6960 -2.6092 -2.5455
-2.4735 -2.3812 -2.3074 -2.2308 -2.1274 -2.0462
-1.9575 -1.8412 -1.7517 -1.6502 -1.5643 -1.4794
-1.3705 -1.2846 -1.1877 -1.0880 -0.9616 -0.8434
-0.7280 -0.5831 -0.4594 -0.3449 -0.2443 -0.1557
-0.0865 -0.0099 0.0797 0.1461 0.1969 0.2458
0.3021 0.3501 0.4055 0.4784 0.5356 0.5883
0.6547 0.7378 0.8310 0.9086 0.9815 1.0701
1.1578 1.2372 1.3073 1.3627 1.4015 1.4504
1.4882 1.5122 1.5224 1.5279 1.5418 1.5141
1.4965 1.4882 1.4541 1.4310 1.4098 1.3876
1.3608 1.3507 1.3488 1.3359 1.3405 1.3424
1.3424 1.3765 1.4051 1.4476 1.5113 1.5501
1.6322 1.7199 1.7947 1.9064 1.9931 2.0614
2.1334 2.2119 2.3014 2.3670 2.4417 2.4999
2.5488 2.5913 2.6116 2.6568 2.6697 2.6697
2.6734 2.6771 2.6910 2.6863 2.6790 2.6670
2.6586 2.6402 2.6383 2.6328 2.6088 2.6070
2.6070 2.6245 2.6365 2.6217 2.6162 2.6189
2.6060 2.5811 2.5580 2.5294 2.4842 2.4260
2.3632 2.2977 2.2239 2.1205 2.0282 1.9432
1.8205 1.7069 1.5657 1.4051 1.2703 1.1162
0.9472 0.7922 0.6482 0.4995 0.3602 0.2134
0.0759 -0.0506 -0.1881 -0.3211 -0.4577 -0.5758
-0.6848 -0.8205 -0.9497 -1.0641 -1.1860 -1.3051
-1.4205 -1.5331 -1.6346 -1.7297 -1.8303 -1.9365
-2.0334 -2.1322 -2.2282 -2.3149 -2.4266 -2.5448
-2.6371 -2.7220 -2.8235 -2.9214 -2.9998 -3.1005
-3.2057 -3.2980 -3.3848 -3.4540 -3.5186 -3.5915
-3.6672 -3.7143 -3.7559 -3.8168 -3.8546 -3.8962
-3.9460 -3.9700 -4.0042 -4.0199 -4.0309 -4.0577
-4.0706 -4.0679 -4.0577 -4.0448 -4.0420 -4.0365
-3.9931 -3.9682 -3.9165 -3.8436 -3.7826 -3.6654
-3.5639 -3.4503 -3.3128 -3.1956 -3.0534 -2.8983
-2.7488 -2.6020 -2.4599 -2.3362 -2.2282 -2.1304
-2.0334 -1.9430 -1.8765 -1.8248 -1.7805 -1.7325
-1.6818 -1.6393 -1.6273 -1.6088 -1.5793 -1.5645
-1.5239 -1.4879 -1.4658 -1.4224 -1.3827 -1.3439
-1.3061 -1.2719 -1.2452 -1.2248 -1.1990 -1.1925
-1.1713 -1.1344 -1.1279 -1.1289 -1.1039 -1.0947
-1.1141 -1.1104 -1.1298 -1.1538 -1.1676 -1.2267
-1.2682 -1.3024 -1.3467 -1.3716 -1.4021 -1.4261
-1.4363 -1.4187 -1.3947 -1.3799 -1.3301 -1.2784
-1.2156 -1.1372 -1.0781 -1.0006 -0.9203 -0.8492
-0.7661 -0.6923 -0.6175 -0.5344 -0.4486 -0.3470
-0.2557 -0.1726 -0.0877 0.0028 0.1025 0.2003
0.3139 0.4246 0.5336 0.6572 0.7763 0.8880
1.0080 1.1345 1.2425 1.3551 1.4788 1.5886
1.7086 1.8351 1.9440 2.0363 2.1332 2.2181
2.2911 2.3917 2.4785 2.5504 2.6381 2.7129
2.7849 2.8532 2.9335 3.0000 3.0443 3.1191
3.1560 3.1837 3.2104 3.2049 3.2215 3.1975
3.1735 3.1615 3.1237 3.0941 3.0480 3.0212
2.9889 2.9409 2.9335 2.8947 2.8624 2.8292
2.7627 2.7341 2.6796 2.6178 2.5486 2.4664
2.3898 2.3049 2.2430 2.1590 2.0723 1.9938
1.9061 1.8378 1.7630 1.7003 1.6504 1.5849
1.5323 1.4935 1.4566 1.4178 1.3975 1.3763
1.3467 1.3301 1.3162 1.3070 1.2932 1.2802
1.2544 1.2332 1.2110 1.1796 1.1565 1.1132
1.0615 1.0162 0.9618 0.8990 0.8344 0.7587
0.6968 0.6396 0.5685 0.4910 0.4199 0.3636
0.2972 0.2482 0.1975 0.1596 0.1485 0.1116
0.0941 0.0590 0.0082 -0.0019 -0.0342 -0.0656
-0.0804 -0.1016 -0.1136 -0.1173 -0.1229 -0.1321
-0.1321 -0.1155 -0.0961 -0.0749 -0.0444 -0.0343
-0.0204 0.0147 0.0433 0.0830 0.1088 0.1457
0.1910 0.2187 0.2510 0.2796 0.3091 0.3239
0.3257 0.3220 0.3137 0.2870 0.2334 0.1947
0.1466 0.0931 0.0202 -0.0537 -0.0924 -0.1626
-0.2170 -0.2595 -0.3361 -0.3887 -0.4395 -0.4774
-0.4995 -0.5383 -0.5567 -0.5872 -0.6075 -0.5983
-0.6241 -0.6343 -0.6241 -0.6269 -0.6361 -0.6454
-0.6371 -0.6444 -0.6380 -0.6315 -0.6297 -0.6085
-0.6103 -0.6029 -0.6075 -0.6048 -0.5808 -0.5697
-0.5651 -0.5568 -0.5180 -0.4940 -0.4838 -0.4635
-0.4368 -0.4100 -0.3832 -0.3639 -0.3509 -0.3140
-0.3112 -0.3039 -0.2900 -0.3048 -0.2882 -0.2956
-0.3223 -0.3426 -0.3703 -0.3879 -0.4091 -0.4239
-0.4405 -0.4839 -0.5254 -0.5549 -0.5863 -0.6020
-0.6233 -0.6602 -0.6759 -0.6916 -0.7063 -0.7036
-0.7239 -0.7359 -0.7414 -0.7525 -0.7470 -0.7710
-0.7903 -0.8033 -0.8144 -0.8180 -0.8245 -0.8171
-0.8107 -0.7996 -0.7968 -0.7673 -0.6999 -0.6593
-0.5974 -0.5374 -0.4821 -0.3925 -0.3288 -0.2596
-0.1830 -0.1184 -0.0491 0.0210 0.0773 0.1299
0.1862 0.2324 0.2961 0.3524 0.4050 0.4908
0.5684 0.6367 0.6985 0.7668 0.8508 0.9090
0.9773 1.0484 1.1019 1.1564 1.1887 1.2413
1.2773 1.2985 1.3317 1.3502 1.3705 1.3696
1.3770 1.3816 1.3576 1.3419 1.3114 1.2699
1.2357 1.1877 1.1416 1.0714 0.9782 0.8988
0.8065 0.7022 0.6007 0.5056 0.3976 0.2923
0.1788 0.0560 -0.0473 -0.1729 -0.2910 -0.4027
-0.5172 -0.6307 -0.7498 -0.8477 -0.9501 -1.0673
-1.1652 -1.2464 -1.3360 -1.4163 -1.4910 -1.5520
-1.6083 -1.6757 -1.7089 -1.7467 -1.7827 -1.8030
-1.8317 -1.8603 -1.8787 -1.8861 -1.8963 -1.8944
-1.9083 -1.9286 -1.9480 -1.9711 -1.9932 -2.0403
-2.0791 -2.1049 -2.1418 -2.1908 -2.2461 -2.2951
-2.3431 -2.3901 -2.4308 -2.4815 -2.5101 -2.5055
-2.5249 -2.5295 -2.5332 -2.5240 -2.4889 -2.4788
-2.4520 -2.4068 -2.3754 -2.3505 -2.3089 -2.2757
-2.2508 -2.2175 -2.2083 -2.2203 -2.2249 -2.1945
-2.1806 -2.1806 -2.1659 -2.1465 -2.1216 -2.1031
-2.0708 -2.0191 -1.9480 -1.8825 -1.8299 -1.7597
-1.6730 -1.5954 -1.5096 -1.4210 -1.3296 -1.2400
-1.2068 -1.1597 -1.0822 -1.0213 -0.9437 -0.8939
-0.8764 -0.8293 -0.7794 -0.7499 -0.7194 -0.6862
-0.6410 -0.6041 -0.5874 -0.5634 -0.5431 -0.5256
-0.5210 -0.5182 -0.4951 -0.4914 -0.4896 -0.4813
-0.4813 -0.4878 -0.4970 -0.4961 -0.4813 -0.4776
-0.4933 -0.4730 -0.4555 -0.4370 -0.4010 -0.3844
-0.3770 -0.3576 -0.3142 -0.3198 -0.3189 -0.2976
-0.3392 -0.3567 -0.3742 -0.4066 -0.4084 -0.4333
-0.4629 -0.4896 -0.5256 -0.5386 -0.5376 -0.5312
-0.5247 -0.5219 -0.5044 -0.4813 -0.4499 -0.4259
-0.4047 -0.3567 -0.3235 -0.3032 -0.2838 -0.2755
-0.2727 -0.2561 -0.2469 -0.2626 -0.2506 -0.2349
-0.2330 -0.2293 -0.2220 -0.1915 -0.1712 -0.1500
-0.1130 -0.0817 -0.0374 0.0226 0.0891 0.1639
0.2460 0.3180 0.3946 0.4906 0.5525 0.6439
0.7537 0.8165 0.8959 0.9651 1.0260 1.0989
1.1515 1.2152 1.2642 1.2863 1.3251 1.3509
1.3611 1.3768 1.3832 1.3786 1.3841 1.3740
1.3454 1.2992 1.2466 1.2115 1.1524 1.0666
0.9789 0.8838 0.7795 0.6826 0.5857 0.4749
0.3614 0.2746 0.1869 0.0900 0.0143 -0.0485
-0.0900 -0.1306 -0.1777 -0.2063 -0.2211 -0.2220
-0.2405 -0.2469 -0.2239 -0.2183 -0.2073 -0.1879
-0.1574 -0.1325 -0.1030 -0.0531 0.0078 0.0697
0.1084 0.1841 0.2709 0.3447 0.4260 0.5210
0.6198 0.6853 0.7638 0.8441 0.9152 0.9872
1.0499 1.1072 1.1459 1.1912 1.2355 1.2789
1.3130 1.3361 1.3536 1.3785 1.4035 1.4155
1.4450 1.4699 1.4912 1.5115 1.5198 1.5244
1.5235 1.5355 1.5373 1.5124 1.4985 1.4884
1.4653 1.4404 1.4164 1.3924 1.3490 1.3148
1.2954 1.2613 1.2484 1.2299 1.1884 1.1634
1.1496 1.1256 1.1071 1.1071 1.1053 1.1044
1.0988 1.1016 1.1025 1.0997 1.0914 1.0748
1.0813 1.0822 1.0665 1.0397 1.0157 1.0037
0.9714 0.9410 0.9188 0.8690 0.8173 0.7840
0.7416 0.7093 0.6806 0.6419 0.6188 0.5782
0.5413 0.5219 0.4951 0.4720 0.4305 0.4102
0.3834 0.3391 0.3040 0.2560 0.2274 0.1979
0.1665 0.1148 0.0668 0.0391 -0.0172 -0.0468
-0.0763 -0.1058 -0.0984 -0.0994 -0.0975 -0.0671
-0.0357 0.0068 0.0732 0.1139 0.1849 0.2754
0.3677 0.4748 0.5708 0.6908 0.8006 0.9095
1.0323 1.1440 1.2501 1.3498 1.4532 1.5446
1.6203 1.6914 1.7467 1.8086 1.8658 1.9064
1.9637 2.0070 2.0606 2.1224 2.1677 2.2277
2.2720 2.3117 2.3670 2.4003 2.4012 2.4187
2.4280 2.4021 2.3809 2.3412 2.3098 2.2803
2.2184 2.1695 2.1243 2.0947 2.0596 2.0052
1.9904 1.9821 1.9738 1.9710 1.9544 1.9359
1.9101 1.8833 1.8575 1.8270 1.7892 1.7559
1.7144 1.6553 1.6064 1.5612 1.4892 1.4172
1.3692 1.3101 1.2399 1.1735 1.1015 1.0230
0.9501 0.8892 0.8098 0.7212 0.6427 0.5476
0.4507 0.3510 0.2412 0.1488 0.0335 -0.0921
-0.2222 -0.3681 -0.4982 -0.6496 -0.7899 -0.9201
-1.0419 -1.1573 -1.2801 -1.3770 -1.4785 -1.5644
-1.6364 -1.7158 -1.7795 -1.8339 -1.8930 -1.9327
-1.9641 -2.0102 -2.0241 -2.0425 -2.0702 -2.0924
-2.1192 -2.1302 -2.1533 -2.1718 -2.1755 -2.1718
-2.1912 -2.2069 -2.1801 -2.1653 -2.1349 -2.1090
-2.0795 -2.0296 -1.9853 -1.9152 -1.8589 -1.7869
-1.7047 -1.6650 -1.5875 -1.5155 -1.4712 -1.4047
-1.3466 -1.2884 -1.2598 -1.2330 -1.2109 -1.2109
-1.1860 -1.1878 -1.2026 -1.2303 -1.2432 -1.2275
-1.2414 -1.2451 -1.2303 -1.2091 -1.1795 -1.1620
-1.1528 -1.1260 -1.0771 -1.0521 -1.0401 -0.9968
-0.9700 -0.9635 -0.9478 -0.9561 -0.9580 -0.9663
-0.9885 -1.0069 -1.0217 -1.0125 -1.0282 -1.0494
-1.0678 -1.0715 -1.0411 -1.0346 -1.0272 -1.0014
-0.9700 -0.9552 -0.9257 -0.8592 -0.8168 -0.7725
-0.7217 -0.6774 -0.6174 -0.5749 -0.5140 -0.4522
-0.4079 -0.3479 -0.2990 -0.2288 -0.1439 -0.0830
-0.0220 0.0712 0.1598 0.2263 0.3093 0.3804
0.4478 0.5207 0.5881 0.6546 0.7090 0.7607
0.7949 0.8447 0.8881 0.9093 0.9536 0.9592
0.9841 1.0293 1.0404 1.0782 1.0949 1.1004
1.1309 1.1549 1.1825 1.1955 1.2149 1.2462
1.2702 1.2979 1.3099 1.3145 1.2961 1.2610
1.2425 1.2185 1.1798 1.1364 1.0902 1.0256
0.9610 0.8835 0.8142 0.7570 0.7025 0.6573
0.5918 0.5438 0.5059 0.4607 0.4265 0.4053
0.3776 0.3499 0.3296 0.2982 0.2927 0.2696
0.2594 0.2779 0.2465 0.2317 0.2290 0.2161
0.2308 0.2400 0.2687 0.2936 0.3222 0.3554
0.3665 0.3960 0.4062 0.4182 0.4487 0.4560
0.4607 0.4616 0.4459 0.4348 0.4154 0.3960
0.3683 0.3139 0.2880 0.2363 0.1948 0.1690
0.1293 0.1126 0.0794 0.0757 0.0619 0.0471
0.0628 0.0582 0.0757 0.0859 0.0831 0.0868
0.0905 0.0868 0.0812 0.0868 0.0739 0.0508
0.0166 -0.0129 -0.0406 -0.0775 -0.1089 -0.1643
-0.2095 -0.2548 -0.3037 -0.3351 -0.3646 -0.3886
-0.4320 -0.4708 -0.4902 -0.5114 -0.5511 -0.6019
-0.6406 -0.6831 -0.7283 -0.7699 -0.7975 -0.8557
-0.9129 -0.9406 -0.9960 -1.0449 -1.0994 -1.1492
-1.1668 -1.2000 -1.2277 -1.2351 -1.2536 -1.2434
-1.2065 -1.2000 -1.1686 -1.1133 -1.0708 -1.0228
-0.9739 -0.9268 -0.8779 -0.8022 -0.7459 -0.7228
-0.6813 -0.6471 -0.6056 -0.5714 -0.5456 -0.5114
-0.4930 -0.4782 -0.4708 -0.4468 -0.4274 -0.4339
-0.4357 -0.4237 -0.4127 -0.4265 -0.4394 -0.4376
-0.4441 -0.4616 -0.4551 -0.4514 -0.4671 -0.4727
-0.4884 -0.4911 -0.4911 -0.4902 -0.4828 -0.4893
-0.4810 -0.4718 -0.4625 -0.4385 -0.4118 -0.3896
-0.3859 -0.3702 -0.3352 -0.3222 -0.3056 -0.2835
-0.2659 -0.2613 -0.2419 -0.1958 -0.1709 -0.1469
-0.1155 -0.0786 -0.0342 -0.0056 0.0202 0.0488
0.0977 0.1624 0.2122 0.2519 0.3211 0.3904
0.4485 0.5159 0.5694 0.6091 0.6700 0.7439
0.7965 0.8620 0.9322 0.9811 1.0374 1.1094
1.1537 1.1805 1.2257 1.2497 1.2866 1.3162
1.3273 1.3568 1.3873 1.3937 1.3937 1.4085
1.4011 1.4020 1.4140 1.4039 1.3992 1.3817
1.3577 1.3365 1.2949 1.2709 1.2349 1.1888
1.1482 1.0882 1.0282 0.9728 0.9294 0.8703
0.8168 0.7845 0.7365 0.7078 0.6848 0.6598
0.6442 0.6322 0.6331 0.6321 0.6321 0.6405
0.6321 0.6423 0.6506 0.6478 0.6608 0.6552
0.6589 0.6451 0.6266 0.6100 0.5860 0.5648
0.5352 0.5287 0.4835 0.4309 0.3995 0.3515
0.3063 0.2731 0.2407 0.1789 0.1217 0.0875
0.0552 0.0007 -0.0510 -0.1036 -0.1497 -0.1774
-0.2199 -0.2503 -0.2900 -0.3491 -0.3962 -0.4405
-0.4811 -0.5171 -0.5688 -0.6131 -0.6528 -0.7073
-0.7433 -0.7848 -0.8365 -0.8707 -0.8928 -0.9224
-0.9491 -0.9639 -0.9759 -0.9824 -0.9667 -0.9584
-0.9648 -0.9344 -0.8974 -0.8642 -0.8264 -0.8024
-0.7728 -0.7461 -0.7322 -0.7027 -0.6528 -0.6307
-0.6335 -0.6242 -0.6104 -0.5845 -0.5651 -0.5476
-0.5338 -0.5301 -0.4922 -0.4645 -0.4618 -0.4341
-0.4073 -0.4193 -0.4378 -0.4378 -0.4378 -0.4359
-0.4516 -0.4821 -0.4987 -0.5246 -0.5938 -0.6630
-0.7018 -0.7415 -0.7682 -0.8052 -0.8532 -0.8947
-0.9399 -0.9667 -1.0092 -1.0489 -1.0424 -1.0323
-1.0119 -0.9889 -0.9713 -0.9381 -0.9409 -0.9769
-0.9972 -1.0036 -1.0036 -1.0203 -1.0304 -1.0323
-1.0637 -1.0830 -1.0904 -1.1172 -1.1624 -1.2003
-1.2030 -1.1975 -1.1938 -1.1901 -1.1790 -1.1624
-1.1578 -1.1514 -1.1338 -1.1209 -1.0858 -1.0535
-1.0360 -0.9797 -0.9178 -0.8643 -0.8218 -0.7914
-0.7572 -0.7268 -0.6732 -0.6206 -0.5615 -0.4905
-0.4415 -0.4083 -0.3898 -0.3548 -0.3169 -0.2948
-0.2440 -0.1942 -0.1554 -0.1055 -0.0945 -0.0732
-0.0585 -0.0677 -0.0289 0.0024 0.0181 0.0486
0.0772 0.0874 0.0994 0.1031 0.0975 0.1197
0.1400 0.1307 0.1234 0.1344 0.1187 0.1095
0.1234 0.1187 0.1141 0.1150 0.1095 0.0809
0.0846 0.0864 0.0486 0.0467 0.0255 0.0061
-0.0013 -0.0317 -0.0419 -0.0760 -0.0945 -0.0936
-0.0973 -0.0890 -0.1056 -0.1204 -0.1361 -0.1601
-0.1841 -0.1997 -0.2173 -0.2514 -0.2791 -0.2837
-0.2921 -0.3188 -0.3271 -0.3484 -0.3594 -0.3631
-0.3890 -0.3871 -0.3982 -0.4259 -0.4416 -0.4665
-0.4813 -0.4998 -0.5302 -0.5671 -0.6041 -0.6308
-0.6696 -0.6890 -0.7158 -0.7601 -0.7878 -0.8127
-0.8136 -0.8072 -0.7998 -0.7758 -0.7693 -0.7785
-0.7665 -0.7619 -0.7721 -0.7684 -0.7961 -0.8275
-0.8349 -0.8616 -0.9004 -0.9355 -0.9770 -1.0121
-1.0573 -1.0943 -1.1063 -1.1312 -1.1303 -1.1459
-1.1718 -1.1718 -1.1792 -1.1681 -1.1663 -1.1635
-1.1376 -1.1266 -1.1173 -1.1146 -1.1173 -1.1146
-1.1238 -1.1053 -1.0777 -1.0777 -1.0509 -1.0500
-1.0601 -1.0472 -1.0463 -1.0370 -1.0223 -0.9817
-0.9614 -0.9438 -0.8931 -0.8672 -0.8349 -0.7887
-0.7537 -0.7297 -0.6983 -0.6761 -0.6568 -0.6143
-0.5894 -0.5672 -0.5515 -0.5395 -0.5285 -0.5312
-0.5285 -0.5377 -0.5202 -0.5174 -0.5349 -0.5257
-0.5405 -0.5506 -0.5682 -0.5811 -0.5885 -0.6217
-0.6199 -0.6189 -0.6429 -0.6679 -0.6623 -0.6383
-0.6466 -0.6374 -0.6272 -0.6180 -0.6042 -0.5894
-0.5534 -0.5414 -0.5266 -0.4814 -0.4343 -0.4085
-0.3780 -0.3310 -0.3226 -0.3079 -0.2525 -0.2156
-0.1897 -0.1454 -0.1168 -0.0780 -0.0439 -0.0014
0.0521 0.0650 0.1056 0.1620 0.2016 0.2506
0.2912 0.3364 0.3770 0.4066 0.4343 0.4592
0.4841 0.4933 0.5035 0.5284 0.5404 0.5552
0.5478 0.5321 0.5496 0.5293 0.4942 0.4702
0.4361 0.3872 0.3401 0.2976 0.2238 0.1665
0.1121 0.0465 0.0068 -0.0458 -0.1021 -0.1482
-0.2018 -0.2378 -0.2599 -0.2812 -0.2849 -0.2830
-0.2978 -0.3098 -0.3079 -0.2950 -0.2535 -0.2147
-0.1722 -0.1289 -0.1030 -0.0559 -0.0162 0.0188
0.0724 0.1213 0.1785 0.2394 0.2985 0.3705
0.4148 0.4600 0.5099 0.5330 0.5754 0.6290
0.6640 0.6880 0.7093 0.7240 0.7296 0.7259
0.7166 0.7231 0.7259 0.7268 0.7268 0.7083
0.7037 0.6917 0.6677 0.6511 0.6483 0.6603
0.6317 0.6197 0.6326 0.6197 0.6391 0.6557
0.6437 0.6456 0.6548 0.6437 0.6419 0.6520
0.6548 0.6825 0.6972 0.7037 0.7222 0.7425
0.7618 0.7895 0.8440 0.8846 0.9206 0.9520
0.9825 1.0194 1.0628 1.1061 1.1265 1.1828
1.2381 1.2732 1.3341 1.3821 1.4311 1.4920
1.5575 1.6387 1.6997 1.7643 1.8197 1.8704
1.9406 1.9757 2.0200 2.0541 2.0763 2.1169
2.1252 2.1418 2.1640 2.1880 2.2009 2.2166
2.2332 2.2369 2.2572 2.2563 2.2516 2.2609
2.2600 2.2581 2.2599 2.2332 2.2267 2.2452
2.2553 2.2729 2.2719 2.2959 2.3144 2.3153
2.3292 2.3467 2.3762 2.3799 2.3753 2.3975
2.4150 2.4076 2.4141 2.4132 2.4030 2.4113
2.4122 2.3984 2.3873 2.3873 2.3652 2.3568
2.3467 2.3273 2.3199 2.2987 2.3015 2.2913
2.2701 2.2599 2.2295 2.1907 2.1501 2.1168
2.0679 2.0310 2.0134 1.9618 1.9073 1.8667
1.8104 1.7550 1.6977 1.6433 1.6082 1.5574
1.5122 1.4716 1.4208 1.3885 1.3387 1.2888
1.2556 1.2002 1.1540 1.1254 1.0765 1.0424
1.0174 0.9667 0.9297 0.8928 0.8716 0.8328
0.7839 0.7663 0.7285 0.7073 0.6787 0.6547
0.6399 0.6205 0.6288 0.6159 0.6048 0.6094
0.6039 0.5928 0.5799 0.5836 0.5983 0.5974
0.5965 0.5891 0.5826 0.5882 0.5614 0.5485
0.5568 0.5531 0.5282 0.4949 0.4820 0.4580
0.4229 0.3915 0.3472 0.3029 0.2605 0.2079
0.1506 0.0971 0.0500 -0.0017 -0.0608 -0.1032
-0.1485 -0.1900 -0.2408 -0.2998 -0.3312 -0.3811
-0.4217 -0.4531 -0.5103 -0.5528 -0.5888 -0.6303
-0.6959 -0.7632 -0.8269 -0.9008 -0.9774 -1.0540
-1.1103 -1.1712 -1.2349 -1.2996 -1.3531 -1.3716
-1.4159 -1.4537 -1.4491 -1.4823 -1.5119 -1.5128
-1.5396 -1.5543 -1.5839 -1.6208 -1.6374 -1.6716
-1.7039 -1.7316 -1.7583 -1.7999 -1.8460 -1.8830
-1.9079 -1.9356 -1.9623 -1.9642 -1.9817 -1.9891
-1.9753 -1.9623 -1.9494 -1.9337 -1.8996 -1.8811
-1.8617 -1.8285 -1.8220 -1.8100 -1.7907 -1.7667
-1.7501 -1.7547 -1.7593 -1.7870 -1.7971 -1.7953
-1.8230 -1.8479 -1.8581 -1.8765 -1.9098 -1.9199
-1.9190 -1.9079 -1.8904 -1.8950 -1.8858 -1.8525
-1.8258 -1.8091 -1.7888 -1.7658 -1.7372 -1.7039
-1.6744 -1.6467 -1.6245 -1.5747 -1.5147 -1.4630
-1.3984 -1.3458 -1.2849 -1.2239 -1.1639 -1.0846
-1.0190 -0.9544 -0.8889 -0.8169 -0.7421 -0.6830
-0.6332 -0.5787 -0.5344 -0.4929 -0.4440 -0.4283
-0.3876 -0.3378 -0.3221 -0.2778 -0.2418 -0.1984
-0.1707 -0.1458 -0.0840 -0.0507 -0.0101 0.0231
0.0508 0.0850 0.1265 0.1671 0.1902 0.2363
0.2576 0.2603 0.2797 0.3000 0.3249 0.3545
0.3674 0.3683 0.3803 0.3942 0.4016 0.4006
0.4108 0.3997 0.3720 0.3739 0.3868 0.3859
0.3766 0.3775 0.3757 0.3766 0.3969 0.4089
0.4163 0.4385 0.4597 0.4911 0.5261 0.5511
0.5834 0.6203 0.6508 0.6674 0.6738 0.6904
0.6988 0.7144 0.7320 0.7403 0.7587 0.7569
0.7689 0.7975 0.8187 0.8520 0.8917 0.9221
0.9720 1.0246 1.0624 1.1215 1.1815 1.2489
1.3061 1.3698 1.4464 1.5101 1.5738 1.6227
1.6689 1.7058 1.7409 1.7760 1.7944 1.8156
1.8184 1.7944 1.7769 1.7759 1.7621 1.7279
1.7122 1.6836 1.6449 1.6255 1.6033 1.5904
1.5701 1.5424 1.5055 1.4815 1.4769 1.4602
1.4538 1.4316 1.4242 1.4205 1.3818 1.3716
1.3421 1.3135 1.2876 1.2332 1.1972 1.1436
1.0928 1.0495 0.9876 0.9322 0.8676 0.8021
0.7375 0.6858 0.6405 0.5916 0.5381 0.4781
0.4328 0.3821 0.3331 0.2953 0.2574 0.2039
0.1550 0.1171 0.0682 0.0276 -0.0158 -0.0287
-0.0463 -0.0739 -0.0859 -0.1044 -0.1007 -0.1229
-0.1275 -0.1293 -0.1478 -0.1201 -0.1127 -0.0915
-0.0638 -0.0306 0.0100 0.0507 0.0959 0.1227
0.1651 0.2085 0.2740 0.3036 0.3082 0.3746
0.3986 0.4171 0.4596 0.4780 0.5029 0.5168
0.5482 0.5694 0.5676 0.5879 0.5796 0.5832
0.5823 0.5592 0.5426 0.5140 0.5159 0.4983
0.4623 0.4402 0.3986 0.3737 0.3515 0.3165
0.2860 0.2509 0.2195 0.1882 0.1438 0.1162
0.0949 0.0451 0.0035 -0.0371 -0.0906 -0.1322
-0.1940 -0.2346 -0.2780 -0.3454 -0.3888 -0.4423
-0.4959 -0.5374 -0.5780 -0.6454 -0.6777 -0.6842
-0.7414 -0.7525 -0.7589 -0.7894 -0.8005 -0.8189
-0.8153 -0.8374 -0.8734 -0.8863 -0.9196 -0.9436
-0.9713 -1.0174 -1.0460 -1.0977 -1.1550 -1.2103
-1.2759 -1.3285 -1.3950 -1.4411 -1.4974 -1.5528
-1.5860 -1.6525 -1.6977 -1.7180 -1.7319 -1.7550
-1.7919 -1.7993 -1.8196 -1.8611 -1.8860 -1.9165
-1.9396 -1.9811 -2.0439 -2.0670 -2.1067 -2.1676
-2.2027 -2.2645 -2.3088 -2.3153 -2.3577 -2.3956
-2.4270 -2.4584 -2.4796 -2.5054 -2.5147 -2.5248
-2.5414 -2.5461 -2.5516 -2.5756 -2.6033 -2.6116
-2.6227 -2.6568 -2.6845 -2.7039 -2.7288 -2.7501
-2.7916 -2.8322 -2.8461 -2.8747 -2.9042 -2.9070
-2.9181 -2.9236 -2.9116 -2.9005 -2.9005 -2.8867
-2.8590 -2.8461 -2.8202 -2.8092 -2.7962 -2.7658
-2.7492 -2.7178 -2.6938 -2.6624 -2.5858 -2.5332
-2.5046 -2.4381 -2.3772 -2.3356 -2.2683 -2.2129
-2.1640 -2.0966 -2.0458 -1.9867 -1.9332 -1.8953
-1.8529 -1.8335 -1.7929 -1.7495 -1.7237 -1.6849
-1.6563 -1.6230 -1.5880 -1.5658 -1.5317 -1.4929
-1.4421 -1.3987 -1.3618 -1.3129 -1.2612 -1.2003
-1.1588 -1.1274 -1.0757 -1.0028 -0.9381 -0.8818
-0.8034 -0.7268 -0.6474 -0.5458 -0.4461 -0.3557
-0.2514 -0.1406 -0.0262 0.0782 0.1705 0.2720
0.3560 0.4391 0.5249 0.5988 0.6615 0.7335
0.7861 0.8249 0.8877 0.9338 0.9791 1.0335
1.0787 1.1240 1.1821 1.2440 1.2864 1.3492
1.4138 1.4766 1.5541 1.6086 1.6667 1.7221
1.7812 1.8338 1.8578 1.8947 1.9243 1.9400
1.9575 1.9760 2.0018 2.0092 1.9824 1.9658
1.9658 1.9316 1.8818 1.8523 1.8089 1.7443
1.6787 1.6067 1.5366 1.4793 1.3953 1.3049
1.2356 1.1396 1.0482 0.9716 0.8959 0.8230
0.7418 0.6605 0.5922 0.5396 0.4833 0.4325
0.3910 0.3338 0.2812 0.2415 0.1944 0.1538
0.1067 0.0541 0.0190 -0.0355 -0.0687 -0.0973
-0.1508 -0.1813 -0.2330 -0.2736 -0.3069 -0.3567
-0.4139 -0.4887 -0.5275 -0.5755 -0.6318 -0.6872
-0.7545 -0.8062 -0.8773 -0.9429 -1.0019 -1.0758
-1.1386 -1.2050 -1.2576 -1.3121 -1.3712 -1.4210
-1.4699 -1.5004 -1.5318 -1.5595 -1.5835 -1.6093
-1.6324 -1.6583 -1.6776 -1.6850 -1.6933 -1.6980
-1.6989 -1.6970 -1.6712 -1.6666 -1.6481 -1.6075
-1.5881 -1.5613 -1.5503 -1.5235 -1.4940 -1.4709
-1.4247 -1.3989 -1.3574 -1.3149 -1.2687 -1.2014
-1.1552 -1.0767 -1.0075 -0.9226 -0.8248 -0.7417
-0.6263 -0.5404 -0.4371 -0.3401 -0.2681 -0.1740
-0.0974 -0.0272 0.0485 0.1112 0.1583 0.2082
0.2331 0.2728 0.3245 0.3328 0.3688 0.3955
0.4103 0.4371 0.4315 0.4481 0.4648 0.4454
0.4417 0.4454 0.4444 0.4380 0.4315 0.4389
0.4241 0.4057 0.3974 0.3817 0.3614 0.3438
0.3300 0.3004 0.2727 0.2663 0.2663 0.2561
0.2552 0.2617 0.2681 0.2727 0.2727 0.2709
0.2681 0.2746 0.2727 0.2598 0.2524 0.2487
0.2478 0.2340 0.2072 0.2026 0.1952 0.1703
0.1647 0.1564 0.1499 0.1352 0.1204 0.1398
0.1306 0.1213 0.1379 0.1333 0.1269 0.1250
0.1278 0.1342 0.1213 0.1121 0.1241 0.1232
0.1010 0.1029 0.0927 0.0696 0.0549 0.0225
0.0078 -0.0125 -0.0532 -0.0808 -0.1085 -0.1288
-0.1436 -0.1602 -0.1584 -0.1732 -0.1805 -0.1750
-0.1796 -0.1741 -0.1833 -0.1972 -0.2009 -0.1926
-0.1962 -0.2202 -0.2184 -0.2286 -0.2424 -0.2507
-0.2664 -0.2701 -0.2932 -0.3144 -0.3356 -0.3698
-0.3799 -0.3864 -0.3855 -0.3698 -0.3587 -0.3421
-0.3135 -0.2600 -0.2157 -0.1787 -0.1326 -0.0901
-0.0458 -0.0153 0.0243 0.0511 0.0603 0.0853
0.1065 0.1286 0.1508 0.1582 0.1683 0.1794
0.1896 0.2200 0.2320 0.2514 0.2736 0.2809
0.2994 0.3068 0.3271 0.3289 0.3363 0.3575
0.3520 0.3640 0.3742 0.3677 0.3539 0.3437
0.3335 0.3095 0.2957 0.2985 0.2809 0.2671
0.2772 0.2671 0.2662 0.2735 0.2855 0.3003
0.3068 0.3400 0.3686 0.3954 0.4258 0.4618
0.5191 0.5717 0.6381 0.7184 0.8024 0.8661
0.9298 1.0221 1.1015 1.1790 1.2686 1.3618
1.4689 1.5760 1.6637 1.7726 1.8833 1.9812
2.0947 2.1935 2.2876 2.3726 2.4547 2.5415
2.6209 2.6938 2.7630 2.8341 2.8821 2.9209
2.9670 2.9966 3.0076 3.0113 3.0178 3.0307
3.0224 3.0141 3.0196 3.0141 3.0159 3.0187
3.0132 3.0030 2.9781 2.9679 2.9513 2.9245
2.8987 2.8572 2.8285 2.7907 2.7528 2.7159
2.6735 2.6319 2.6024 2.5968 2.5618 2.5553
2.5682 2.5507 2.5322 2.5276 2.5313 2.5276
2.5322 2.5424 2.5479 2.5359 2.5267 2.5248
2.5174 2.5027 2.4704 2.4630 2.4270 2.3688
2.3365 2.3079 2.2811 2.2257 2.1925 2.1565
2.1113 2.0799 2.0374 1.9996 1.9322 1.8667
1.8233 1.7550 1.6728 1.6082 1.5408 1.4568
1.3580 1.2602 1.1651 1.0645 0.9906 0.8808
0.7774 0.7036 0.6002 0.5245 0.4248 0.3279
0.2439 0.1516 0.0777 -0.0349 -0.1281 -0.2251
-0.3321 -0.4152 -0.5241 -0.6091 -0.7014 -0.7881
-0.8518 -0.9275 -0.9783 -1.0475 -1.1241 -1.1767
-1.2284 -1.2838 -1.3281 -1.3734 -1.4306 -1.4804
-1.5211 -1.5571 -1.5958 -1.6263 -1.6494 -1.6743
-1.6854 -1.6808 -1.6632 -1.6457 -1.6272 -1.6032
-1.5755 -1.5368 -1.5100 -1.4906 -1.4565 -1.4159
-1.3752 -1.3374 -1.2820 -1.2211 -1.1629 -1.0845
-1.0199 -0.9700 -0.8897 -0.8297 -0.7780 -0.6903
-0.6211 -0.5620 -0.4928 -0.4300 -0.3857 -0.3368
-0.2925 -0.2722 -0.2463 -0.2140 -0.1946 -0.1790
-0.1596 -0.1365 -0.1060 -0.0783 -0.0580 -0.0294
0.0010 0.0269 0.0592 0.1016 0.1275 0.1413
0.1755 0.2023 0.2115 0.2235 0.2161 0.2041
0.1856 0.1579 0.1238 0.0942 0.0749 0.0333
0.0112 -0.0018 -0.0156 -0.0193 -0.0211 -0.0193
-0.0184 -0.0064 -0.0128 -0.0110 0.0075 -0.0008
-0.0045 -0.0138 -0.0322 -0.0479 -0.0885 -0.1282
-0.1605 -0.1984 -0.2178 -0.2409 -0.2593 -0.2538
-0.2510 -0.2427 -0.2390 -0.2242 -0.2039 -0.2021
-0.1753 -0.1569 -0.1550 -0.1458 -0.1495 -0.1430
-0.1163 -0.1135 -0.1273 -0.1181 -0.1236 -0.1532
-0.1790 -0.1883 -0.2003 -0.2316 -0.2603 -0.2778
-0.3092 -0.3323 -0.3378 -0.3646 -0.3720 -0.3710
-0.3830 -0.3867 -0.4273 -0.4504 -0.4800 -0.5400
-0.5806 -0.6295 -0.6923 -0.7726 -0.8280 -0.8824
-0.9572 -1.0117 -1.0624 -1.1178 -1.1631 -1.2138
-1.2655 -1.2849 -1.3089 -1.3394 -1.3726 -1.3938
-1.3855 -1.3938 -1.4178 -1.4188 -1.4151 -1.4409
-1.4474 -1.4603 -1.4631 -1.4557 -1.4769 -1.4723
-1.4741 -1.4852 -1.4880 -1.5138 -1.5138 -1.5037
-1.5203 -1.5203 -1.5175 -1.5129 -1.5000 -1.5092
-1.4908 -1.4668 -1.4529 -1.4040 -1.3689 -1.3403
-1.3025 -1.2665 -1.2259 -1.1945 -1.1576 -1.1206
-1.1077 -1.0800 -1.0348 -0.9997 -0.9674 -0.9443
-0.9139 -0.8880 -0.8576 -0.8105 -0.7717 -0.7311
-0.6905 -0.6388 -0.5797 -0.5253 -0.4773 -0.4339
-0.3813 -0.3194 -0.2474 -0.1902 -0.1284 -0.0619
0.0009 0.0563 0.1024 0.1689 0.2353 0.2935
0.3433 0.4052 0.4596 0.5113 0.5759 0.6212
0.6756 0.7310 0.7753 0.8279 0.8778 0.9341
0.9895 1.0541 1.1187 1.1695 1.2276 1.2701
1.3116 1.3661 1.3956 1.4159 1.4538 1.4879
1.5156 1.5608 1.6061 1.6384 1.6679 1.6965
1.7168 1.7325 1.7630 1.7962 1.8193 1.8461
1.8719 1.8931 1.9180 1.9494 1.9817 1.9928
1.9956 2.0122 2.0085 1.9919 1.9790 1.9550
1.9162 1.8737 1.8257 1.7556 1.6956 1.6143
1.5211 1.4473 1.3568 1.2866 1.1999 1.1020
1.0420 0.9525 0.8639 0.8002 0.7236 0.6377
0.5482 0.4753 0.4005 0.3156 0.2528 0.1873
0.1079 0.0359 -0.0444 -0.1054 -0.1635 -0.2374
-0.2909 -0.3518 -0.4008 -0.4432 -0.4958 -0.5134
-0.5420 -0.5780 -0.5826 -0.5992 -0.6112 -0.6352
-0.6565 -0.6592 -0.6685 -0.6721 -0.6841 -0.6971
-0.7155 -0.7238 -0.7257 -0.7571 -0.7792 -0.7931
-0.8032 -0.8235 -0.8531 -0.8568 -0.8706 -0.8799
-0.8780 -0.8909 -0.8882 -0.9048 -0.9085 -0.8743
-0.8651 -0.8596 -0.8383 -0.8365 -0.8300 -0.8051
-0.7857 -0.7709 -0.7626 -0.7460 -0.7322 -0.7128
-0.6851 -0.6620 -0.6325 -0.6186 -0.6011 -0.5734
-0.5568 -0.5374 -0.5319 -0.5310 -0.5190 -0.5310
-0.5365 -0.5374 -0.5624 -0.5845 -0.6104 -0.6436
-0.6676 -0.7027 -0.7424 -0.7765 -0.8125 -0.8476
-0.8864 -0.9177 -0.9501 -0.9750 -0.9934 -1.0073
-1.0147 -1.0322 -1.0331 -1.0442 -1.0553 -1.0590
-1.0571 -1.0525 -1.0664 -1.0571 -1.0553 -1.0618
-1.0581 -1.0655 -1.0608 -1.0470 -1.0322 -1.0101
-0.9861 -0.9704 -0.9390 -0.9039 -0.8735 -0.8181
-0.7802 -0.7285 -0.6510 -0.6233 -0.5781 -0.5218
-0.4821 -0.4147 -0.3686 -0.3326 -0.2809 -0.2421
-0.1923 -0.1350 -0.0815 -0.0307 0.0173 0.0773
0.1197 0.1714 0.2333 0.2739 0.3173 0.3607
0.4050 0.4474 0.4982 0.5434 0.5896 0.6339
0.6551 0.6819 0.7040 0.7086 0.7114 0.7133
0.7114 0.6874 0.6625 0.6496 0.6154 0.6016
0.5794 0.5397 0.5332 0.5259 0.5231 0.5323
0.5517 0.5425 0.5406 0.5877 0.6080 0.6126
0.6348 0.6579 0.6772 0.6975 0.7206 0.7354
0.7455 0.7603 0.7723 0.7788 0.7889 0.7825
0.7705 0.7723 0.7658 0.7658 0.7594 0.7566
0.7511 0.7363 0.7409 0.7372 0.7206 0.7058
0.6984 0.6781 0.6458 0.6089 0.5729 0.5452
0.5074 0.4695 0.4206 0.3634 0.3144 0.2701
0.2212 0.1861 0.1501 0.0920 0.0532 0.0098
-0.0382 -0.0733 -0.1231 -0.1766 -0.2173 -0.2431
-0.2883 -0.3345 -0.3760 -0.4240 -0.4739 -0.5237
-0.5708 -0.6243 -0.6687 -0.7065 -0.7370 -0.7628
-0.8071 -0.8431 -0.8487 -0.8754 -0.9077 -0.9299
-0.9585 -0.9825 -1.0185 -1.0351 -1.0693 -1.1219
-1.1524 -1.1976 -1.2299 -1.2668 -1.3287 -1.3739
-1.4071 -1.4450 -1.4653 -1.4847 -1.5253 -1.5585
-1.5659 -1.5881 -1.6001 -1.5936 -1.6176 -1.6435
-1.6573 -1.6444 -1.6592 -1.6721 -1.6582 -1.6730
-1.6702 -1.6887 -1.6970 -1.6896 -1.6979 -1.6905
-1.6989 -1.6989 -1.7099 -1.7099 -1.7026 -1.7210
-1.7164 -1.7164 -1.7256 -1.7302 -1.7358 -1.7293
-1.7173 -1.7155 -1.7099 -1.7044 -1.7136 -1.6970
-1.6906 -1.6998 -1.6878 -1.6740 -1.6573 -1.6564
-1.6490 -1.6223 -1.5992 -1.5817 -1.5567 -1.5180
-1.4829 -1.4469 -1.3989 -1.3555 -1.3149 -1.2512
-1.1866 -1.1247 -1.0537 -0.9789 -0.9041 -0.8331
-0.7675 -0.7075 -0.6328 -0.5608 -0.4869 -0.4269
-0.3844 -0.3106 -0.2497 -0.1851 -0.1085 -0.0651
0.0152 0.0872 0.1528 0.2405 0.2903 0.3522
0.4241 0.4934 0.5478 0.5829 0.6420 0.7085
0.7564 0.7878 0.8201 0.8589 0.8977 0.9281
0.9558 0.9807 1.0011 1.0186 1.0426 1.0481
1.0426 1.0564 1.0527 1.0417 1.0417 1.0278
0.9955 0.9835 0.9697 0.9521 0.9466 0.9124
0.9004 0.9032 0.8847 0.8903 0.8884 0.8773
0.8884 0.8820 0.8866 0.9050 0.8755 0.8755
0.8783 0.8506 0.8506 0.8256 0.8081 0.8099
0.7878 0.7749 0.7509 0.7361 0.7195 0.6973
0.7066 0.6890 0.6789 0.6899 0.6899 0.7130
0.7167 0.7241 0.7435 0.7527 0.7887 0.8090
0.8487 0.8948 0.9124 0.9493 0.9890 1.0139
1.0287 1.0573 1.0933 1.1182 1.1330 1.1459
1.1644 1.1745 1.1893 1.1902 1.2022 1.2244
1.2244 1.2345 1.2327 1.2410 1.2447 1.2271
1.2299 1.2142 1.2059 1.2160 1.1865 1.1671
1.1496 1.0988 1.0730 1.0564 1.0259 0.9936
0.9567 0.9280 0.9050 0.8773 0.8643 0.8477
0.8237 0.8099 0.7868 0.7776 0.7637 0.7453
0.7360 0.7093 0.6973 0.6936 0.6770 0.6696
0.6483 0.6317 0.6262 0.6013 0.6031 0.6022
0.5828 0.5837 0.5736 0.5643 0.5505 0.5422
0.5459 0.5329 0.5182 0.5089 0.5089 0.4868
0.4665 0.4711 0.4517 0.4452 0.4434 0.4166
0.3889 0.3705 0.3418 0.3123 0.2920 0.2514
0.2108 0.1775 0.1249 0.0769 0.0409 0.0040
-0.0403 -0.0809 -0.1040 -0.1289 -0.1345 -0.1391
-0.1742 -0.1723 -0.1816 -0.2037 -0.1917 -0.2074
-0.2379 -0.2508 -0.2573 -0.2628 -0.2803 -0.3062
-0.3034 -0.3016 -0.3200 -0.3080 -0.3006 -0.2951
-0.2720 -0.2683 -0.2573 -0.2139 -0.1963 -0.1677
-0.1225 -0.1087 -0.0607 -0.0523 -0.0367 -0.0062
-0.0228 -0.0034 -0.0090 -0.0090 -0.0053 -0.0357
-0.0468 -0.0727 -0.0893 -0.1114 -0.1253 -0.1382
-0.1696 -0.1816 -0.1982 -0.2121 -0.2241 -0.2471
-0.2785 -0.2951 -0.3099 -0.3293 -0.3422 -0.3671
-0.3810 -0.3921 -0.4105 -0.4087 -0.3995 -0.4022
-0.3995 -0.3884 -0.3773 -0.3515 -0.3265 -0.3035
-0.2832 -0.2499 -0.2176 -0.1918 -0.1595 -0.1299
-0.1050 -0.0727 -0.0432 -0.0293 0.0021 -0.0007
0.0030 0.0362 0.0417 0.0648 0.0768 0.0796
0.1008 0.1211 0.1359 0.1544 0.1765 0.1922
0.2116 0.2254 0.2411 0.2707 0.2882 0.3048
0.3214 0.3233 0.3436 0.3583 0.3547 0.3574
0.3630 0.3611 0.3537 0.3593 0.3611 0.3565
0.3611 0.3583 0.3583 0.3648 0.3749 0.3703
0.3593 0.3759 0.3980 0.4183 0.4377 0.4765
0.5143 0.5309 0.5706 0.6288 0.6722 0.6906
0.7202 0.7691 0.8042 0.8365 0.8743 0.8992
0.9297 0.9491 0.9371 0.9583 0.9758 0.9749
0.9860 0.9814 0.9777 0.9703 0.9546 0.9537
0.9491 0.9371 0.9241 0.8974 0.8743 0.8466
0.8217 0.7977 0.7635 0.7349 0.6943 0.6611
0.6260 0.5817 0.5595 0.5207 0.4654 0.4192
0.3869 0.3334 0.2900 0.2660 0.2078 0.1737
0.1414 0.0980 0.0749 0.0306 -0.0119 -0.0276
-0.0590 -0.1051 -0.1467 -0.1854 -0.2242 -0.2731
-0.3202 -0.3839 -0.4402 -0.5039 -0.5759 -0.6340
-0.7208 -0.7919 -0.8787 -0.9599 -1.0144 -1.1057
-1.1630 -1.2101 -1.2821 -1.3365 -1.3928 -1.4501
-1.4934 -1.5424 -1.5894 -1.6374 -1.6928 -1.7418
-1.7925 -1.8359 -1.8738 -1.9024 -1.9356 -1.9661
-1.9771 -1.9965 -2.0141 -2.0187 -2.0150 -2.0159
-2.0224 -2.0048 -1.9947 -1.9901 -1.9873 -1.9781
-1.9596 -1.9550 -1.9319 -1.9245 -1.9052 -1.8812
-1.8729 -1.8350 -1.8045 -1.7621 -1.7409 -1.7067
-1.6495 -1.6209 -1.5646 -1.5166 -1.4649 -1.4086
-1.3643 -1.2941 -1.2359 -1.1778 -1.1307 -1.0781
-0.9987 -0.9452 -0.8843 -0.8252 -0.7680 -0.6886
-0.6221 -0.5483 -0.4837 -0.4430 -0.3821 -0.3221
-0.2760 -0.2197 -0.1846 -0.1421 -0.1015 -0.0794
-0.0415 -0.0166 0.0129 0.0462 0.0600 0.0831
0.1099 0.1376 0.1579 0.1800 0.2160 0.2372
0.2714 0.3139 0.3480 0.3849 0.4043 0.4394
0.4754 0.4920 0.5022 0.5095 0.5077 0.5003
0.5178 0.5105 0.4837 0.4809 0.4745 0.4551
0.4440 0.4357 0.4034 0.3923 0.3997 0.3877
0.3738 0.3443 0.3111 0.2963 0.2732 0.2483
0.2289 0.1874 0.1726 0.1643 0.1366 0.1329
0.1172 0.1200 0.1181 0.1024 0.1061 0.0997
0.1015 0.0913 0.0858 0.0840 0.0710 0.0609
0.0323 0.0147 -0.0019 -0.0222 -0.0619 -0.1062
-0.1422 -0.1856 -0.2179 -0.2696 -0.3213 -0.3656
-0.4071 -0.4422 -0.4791 -0.5151 -0.5567 -0.5945
-0.6259 -0.6444 -0.6859 -0.7321 -0.7699 -0.8096
-0.8281 -0.8705 -0.9111 -0.9314 -0.9739 -1.0173
-1.0441 -1.0699 -1.0967 -1.1235 -1.1438 -1.1438
-1.1659 -1.1770 -1.1742 -1.1872 -1.1687 -1.1558
-1.1484 -1.1364 -1.1078 -1.0736 -1.0681 -1.0441
-1.0247 -1.0145 -0.9905 -0.9665 -0.9370 -0.9075
-0.8779 -0.8659 -0.8355 -0.7893 -0.7579 -0.7183
-0.6906 -0.6343 -0.5761 -0.5364 -0.4884 -0.4478
-0.3656 -0.3029 -0.2438 -0.1681 -0.1164 -0.0315
0.0248 0.0987 0.2020 0.2547 0.3174 0.3894
0.4550 0.5205 0.5750 0.6350 0.6949 0.7522
0.8140 0.8713 0.9220 0.9599 0.9949 1.0439
1.0734 1.1002 1.1325 1.1602 1.1980 1.2165
1.2294 1.2580 1.2783 1.2774 1.2922 1.3125
1.3125 1.3180 1.3032 1.2783 1.2497 1.2165
1.1878 1.1371 1.0863 1.0401 0.9811 0.9331
0.8749 0.8038 0.7568 0.7005 0.6414 0.5915
0.5297 0.4697 0.4134 0.3580 0.3128 0.2500
0.1817 0.1328 0.0700 -0.0094 -0.0759 -0.1396
-0.2069 -0.2706 -0.3288 -0.3869 -0.4534 -0.5079
-0.5466 -0.6057 -0.6454 -0.6842 -0.7322 -0.7516
-0.7894 -0.8254 -0.8402 -0.8402 -0.8522 -0.8697
-0.8587 -0.8660 -0.8743 -0.8716 -0.8817 -0.8836
-0.8919 -0.8910 -0.8799 -0.8873 -0.8817 -0.8919
-0.9067 -0.8956 -0.8891 -0.8744 -0.8513 -0.8291
-0.8181 -0.8061 -0.7922 -0.7839 -0.7590 -0.7387
-0.7276 -0.7027 -0.6870 -0.6879 -0.6667 -0.6353
-0.6150 -0.5836 -0.5550 -0.5338 -0.5051 -0.4655
-0.4138 -0.3685 -0.3196 -0.2661 -0.2282 -0.1802
-0.1332 -0.0916 -0.0409 0.0007 0.0376 0.0754
0.1124 0.1474 0.1659 0.1862 0.2111 0.2121
0.2130 0.2222 0.2222 0.2148 0.2056 0.1871
0.1696 0.1797 0.1807 0.1576 0.1465 0.1336
0.1216 0.1142 0.0957 0.0856 0.0847 0.0754
0.0607 0.0579 0.0542 0.0376 0.0302 0.0127
-0.0012 -0.0132 -0.0418 -0.0529 -0.0732 -0.1110
-0.1147 -0.1221 -0.1480 -0.1452 -0.1609 -0.1609
-0.1563 -0.1877 -0.1821 -0.1858 -0.1951 -0.2098
-0.2228 -0.2191 -0.2486 -0.2615 -0.2652 -0.2772
-0.2855 -0.2846 -0.2985 -0.3178 -0.3252 -0.3612
-0.3631 -0.3621 -0.3852 -0.3889 -0.4249 -0.4471
-0.4554 -0.4803 -0.4942 -0.5163 -0.5200 -0.5292
-0.5579 -0.5717 -0.5809 -0.5745 -0.5726 -0.5699
-0.5708 -0.5809 -0.5560 -0.5265 -0.4886 -0.4517
-0.4268 -0.3825 -0.3493 -0.3160 -0.2643 -0.2265
-0.1776 -0.1379 -0.1065 -0.0696 -0.0456 -0.0142
0.0107 0.0366 0.0421 0.0560 0.0947 0.1215
0.1418 0.1603 0.1843 0.2046 0.2378 0.2581
0.2683 0.2950 0.3070 0.3199 0.3421 0.3541
0.3716 0.3892 0.3892 0.3993 0.4150 0.4206
0.4335 0.4538 0.4750 0.4916 0.5119 0.5230
0.5378 0.5609 0.5701 0.5802 0.5969 0.6088
0.6172 0.6356 0.6596 0.6781 0.6993 0.7307
0.7519 0.7888 0.8304 0.8627 0.9116 0.9411
0.9938 1.0611 1.0981 1.1451 1.1913 1.2411
1.2956 1.3261 1.3574 1.3990 1.4451 1.4802
1.5097 1.5300 1.5457 1.5716 1.6039 1.6297
1.6491 1.6713 1.6814 1.7036 1.7027 1.6971
1.7110 1.6897 1.6750 1.6630 1.6270 1.5919
1.5531 1.5051 1.4719 1.4276 1.3814 1.3371
1.2669 1.2189 1.1737 1.1266 1.0676 1.0057
0.9734 0.9162 0.8562 0.8266 0.7916 0.7509
0.7177 0.6789 0.6439 0.6208 0.5968 0.5802
0.5589 0.5303 0.5155 0.4989 0.4657 0.4509
0.4389 0.4131 0.4029 0.3872 0.3854 0.3965
0.3974 0.3909 0.3752 0.3669 0.3586 0.3595
0.3540 0.3411 0.3392 0.3383 0.3401 0.3235
0.3328 0.3503 0.3235 0.3208 0.3226 0.3198
0.3448 0.3374 0.3309 0.3494 0.3540 0.3678
0.3687 0.3595 0.3706 0.3826 0.3724 0.3724
0.3900 0.3835 0.3835 0.3789 0.3687 0.3752
0.3540 0.3512 0.3540 0.3373 0.3327 0.3244
0.3207 0.3124 0.3032 0.3050 0.3087 0.3272
0.3373 0.3558 0.3696 0.3696 0.4056 0.4029
0.4167 0.4536 0.4527 0.4795 0.4767 0.4555
0.4610 0.4582 0.4481 0.4352 0.4176 0.3955
0.3696 0.3189 0.2755 0.2358 0.1822 0.1324
0.0779 0.0345 -0.0218 -0.0744 -0.1113 -0.1639
-0.1981 -0.2313 -0.2645 -0.2895 -0.3218 -0.3421
-0.3735 -0.3975 -0.4298 -0.4649 -0.4815 -0.5156
-0.5405 -0.5562 -0.5830 -0.6172 -0.6329 -0.6486
-0.6633 -0.6707 -0.6984 -0.7076 -0.6984 -0.7039
-0.7123 -0.6993 -0.6984 -0.7113 -0.7132 -0.7261
-0.7252 -0.7280 -0.7520 -0.7612 -0.7566 -0.7575
-0.7741 -0.7732 -0.7557 -0.7446 -0.7427 -0.7409
-0.7280 -0.7252 -0.7104 -0.6901 -0.6763 -0.6541
-0.6421 -0.6301 -0.6200 -0.6070 -0.5941 -0.5904
-0.5720 -0.5554 -0.5544 -0.5397 -0.5341 -0.5406
-0.5360 -0.5434 -0.5461 -0.5351 -0.5415 -0.5508
-0.5508 -0.5471 -0.5572 -0.5775 -0.5711 -0.5858
-0.5978 -0.5997 -0.6228 -0.6265 -0.6486 -0.6643
-0.6809 -0.7040 -0.7178 -0.7437 -0.7585 -0.7963
-0.8286 -0.8452 -0.8711 -0.8969 -0.9283 -0.9440
-0.9662 -0.9791 -0.9902 -1.0096 -1.0086 -1.0169
-1.0086 -0.9948 -1.0022 -0.9883 -0.9763 -0.9763
-0.9551 -0.9459 -0.9366 -0.9237 -0.9311 -0.9163
-0.8914 -0.8757 -0.8480 -0.8286 -0.7991 -0.7613
-0.7373 -0.6883 -0.6542 -0.6302 -0.5757 -0.5444
-0.4982 -0.4585 -0.4244 -0.3680 -0.3339 -0.2850
-0.2305 -0.1816 -0.1281 -0.0847 -0.0330 0.0178
0.0658 0.1092 0.1526 0.2319 0.2827 0.3113
0.3879 0.4322 0.4775 0.5725 0.6113 0.6621
0.7359 0.7867 0.8661 0.9085 0.9565 1.0267
1.0682 1.1208 1.1744 1.2168 1.2611 1.3165
1.3581 1.3913 1.4384 1.4808 1.5177 1.5621
1.6082 1.6331 1.6802 1.7264 1.7504 1.7891
1.8334 1.8630 1.8907 1.9387 1.9867 2.0227
2.0577 2.1030 2.1353 2.1676 2.2230 2.2580
2.2922 2.3411 2.3836 2.4325 2.4722 2.5008
2.5479 2.5885 2.6263 2.6577 2.6762 2.7057
2.7242 2.7408 2.7491 2.7343 2.7389 2.7426
2.7306 2.7075 2.6854 2.6734 2.6549 2.6457
2.6429 2.6272 2.6115 2.5977 2.5811 2.5755
2.5700 2.5654 2.5626 2.5589 2.5626 2.5552
2.5451 2.5358 2.5248 2.5405 2.5414 2.5275
2.5321 2.5220 2.5118 2.5072 2.5035 2.4971
2.4731 2.4500 2.4481 2.4361 2.4011 2.3964
2.3743 2.3549 2.3429 2.3134 2.3134 2.2875
2.2617 2.2423 2.2109 2.1906 2.1767 2.1712
2.1481 2.1389 2.1324 2.1223 2.1084 2.0789
2.0687 2.0530 2.0373 2.0198 1.9903 1.9709
1.9423 1.9183 1.9007 1.8536 1.8056 1.7696
1.7281 1.6893 1.6358 1.5869 1.5296 1.4770
1.4318 1.3579 1.2924 1.2278 1.1604 1.0746
0.9961 0.9361 0.8493 0.7653 0.6749 0.6010
0.5179 0.4081 0.3315 0.2521 0.1552 0.0610
-0.0415 -0.1282 -0.2251 -0.3415 -0.4245 -0.5288
-0.6350 -0.7356 -0.8547 -0.9461 -1.0485 -1.1491
-1.2525 -1.3679 -1.4621 -1.5618 -1.6633 -1.7593
-1.8645 -1.9568 -2.0288 -2.1267 -2.2052 -2.2808
-2.3648 -2.4239 -2.5098 -2.5725 -2.6196 -2.6704
-2.7285 -2.7932 -2.8172 -2.8790 -2.9335 -2.9602
-3.0138 -3.0378 -3.0710 -3.1190 -3.1467 -3.1929
-3.2196 -3.2270 -3.2621 -3.2796 -3.2981 -3.3046
-3.3212 -3.3535 -3.3406 -3.3507 -3.3701 -3.3729
-3.3756 -3.3710 -3.3830 -3.3858 -3.3720 -3.3720
-3.3664 -3.3636 -3.3424 -3.3046 -3.3083 -3.3000
-3.2723 -3.2473 -3.2270 -3.2233 -3.2067 -3.1864
-3.1707 -3.1569 -3.1412 -3.1246 -3.1043 -3.0738
-3.0563 -3.0424 -3.0267 -3.0212 -2.9991 -2.9695
-2.9511 -2.9206 -2.9003 -2.8726 -2.8541 -2.8403
-2.8218 -2.8043 -2.7535 -2.7185 -2.6815 -2.6566
-2.6298 -2.5874 -2.5698 -2.5338 -2.5052 -2.4757
-2.4517 -2.4259 -2.4019 -2.3825 -2.3271 -2.3123
-2.3003 -2.2606 -2.2459 -2.2062 -2.1656 -2.1397
-2.0945 -2.0557 -2.0160 -1.9726 -1.9219 -1.8748
-1.8129 -1.7354 -1.6819 -1.6237 -1.5683 -1.5166
-1.4576 -1.4077 -1.3607 -1.3136 -1.2840 -1.2545
-1.2047 -1.1760 -1.1484 -1.1142 -1.0865 -1.0588
-1.0357 -1.0080 -0.9896 -0.9601 -0.9130 -0.9056
-0.8908 -0.8428 -0.8197 -0.7948 -0.7727 -0.7625
-0.7385 -0.7201 -0.6905 -0.6675 -0.6628 -0.6471
-0.6453 -0.6324 -0.6176 -0.6111 -0.5936 -0.5733
-0.5456 -0.5207 -0.4976 -0.4773 -0.4533 -0.4201
-0.3933 -0.3592 -0.3158 -0.2844 -0.2585 -0.2069
-0.1699 -0.1256 -0.0702 -0.0416 -0.0038 0.0285
0.0571 0.0996 0.1319 0.1661 0.1873 0.1993
0.2150 0.2380 0.2722 0.2833 0.3017 0.3248
0.3304 0.3387 0.3414 0.3534 0.3553 0.3460
0.3396 0.3230 0.3063 0.2925 0.2879 0.2768
0.2574 0.2362 0.2353 0.2362 0.2306 0.2426
0.2362 0.2408 0.2648 0.2777 0.2934 0.3082
0.3128 0.3220 0.3266 0.3460 0.3691 0.3682
0.3922 0.3968 0.3995 0.4189 0.4199 0.4448
0.4568 0.4605 0.4798 0.5223 0.5482 0.5583
0.5934 0.6155 0.6395 0.6617 0.6848 0.7051
0.7171 0.7420 0.7549 0.7503 0.7484 0.7577
0.7780 0.7697 0.7484 0.7549 0.7475 0.7531
0.7503 0.7318 0.7337 0.7337 0.7475 0.7549
0.7586 0.7660 0.7678 0.7706 0.7752 0.7854
0.7955 0.8029 0.8140 0.8297 0.8370 0.8537
0.8555 0.8675 0.8915 0.8869 0.9007 0.9284
0.9367 0.9321 0.9496 0.9570 0.9626 0.9644
0.9543 0.9552 0.9349 0.9293 0.9256 0.9164
0.9072 0.8915 0.8786 0.8712 0.8749 0.8536
0.8481 0.8398 0.8269 0.8389 0.8222 0.8047
0.8010 0.7853 0.7696 0.7705 0.7475 0.7161
0.7068 0.6764 0.6681 0.6588 0.6238 0.6053
0.5896 0.5675 0.5361 0.5195 0.5047 0.4770
0.4576 0.4484 0.4318 0.4068 0.3976 0.4013
0.3958 0.3847 0.3847 0.3847 0.3810 0.3994
0.4031 0.3957 0.4087 0.4022 0.4068 0.4151
0.4068 0.4151 0.4114 0.4188 0.4317 0.4179
0.4299 0.4308 0.4354 0.4502 0.4474 0.4880
0.5056 0.5065 0.5296 0.5388 0.5646 0.5813
0.5970 0.6228 0.6366 0.6625 0.6579 0.6689
0.7022 0.6920 0.6948 0.7012 0.7059 0.7206
0.7179 0.7280 0.7419 0.7354 0.7234 0.7446
0.7742 0.7723 0.7862 0.7945 0.8009 0.8231
0.8194 0.8240 0.8194 0.7889 0.7898 0.7769
0.7317 0.7105 0.6929 0.6652 0.6486 0.6320
0.6043 0.5655 0.5341 0.5083 0.4714 0.4271
0.3800 0.3449 0.3181 0.2849 0.2314 0.1908
0.1557 0.1068 0.0634 0.0255 -0.0049 -0.0465
-0.0714 -0.0936 -0.1526 -0.1877 -0.2025 -0.2459
-0.2837 -0.3160 -0.3622 -0.4000 -0.4425 -0.4794
-0.5108 -0.5385 -0.5597 -0.5883 -0.5865 -0.5976
-0.6197 -0.6280 -0.6354 -0.6382 -0.6474 -0.6410
-0.6447 -0.6456 -0.6400 -0.6594 -0.6576 -0.6456
-0.6641 -0.6761 -0.6696 -0.6927 -0.7010 -0.6899
-0.7065 -0.7157 -0.7111 -0.7121 -0.7065 -0.7028
-0.6991 -0.6954 -0.6973 -0.6982 -0.6973 -0.6844
-0.6890 -0.7075 -0.7075 -0.7056 -0.7185 -0.7278
-0.7195 -0.7139 -0.7148 -0.7019 -0.6955 -0.7121
-0.7056 -0.6992 -0.7056 -0.6927 -0.6789 -0.6742
-0.6705 -0.6447 -0.6512 -0.6502 -0.6346 -0.6456
-0.6253 -0.6346 -0.6419 -0.6263 -0.6401 -0.6558
-0.6558 -0.6521 -0.6687 -0.6743 -0.6853 -0.7029
-0.6973 -0.7010 -0.7066 -0.6946 -0.7010 -0.7066
-0.6872 -0.6937 -0.6890 -0.6697 -0.6789 -0.6770
-0.6789 -0.6780 -0.6660 -0.6614 -0.6540 -0.6577
-0.6540 -0.6521 -0.6586 -0.6475 -0.6429 -0.6401
-0.6401 -0.6429 -0.6337 -0.6420 -0.6309 -0.6088
-0.6115 -0.6060 -0.6069 -0.6023 -0.5820 -0.5848
-0.5829 -0.5645 -0.5746 -0.5765 -0.5645 -0.5746
-0.5718 -0.5709 -0.5829 -0.5885 -0.5885 -0.5922
-0.5968 -0.6060 -0.6106 -0.6042 -0.6014 -0.6051
-0.6106 -0.5940 -0.5922 -0.5922 -0.5700 -0.5672
-0.5802 -0.5709 -0.5580 -0.5645 -0.5571 -0.5580
-0.5645 -0.5765 -0.5737 -0.5700 -0.5922 -0.6014
-0.6106 -0.6208 -0.6356 -0.6420 -0.6568 -0.6762
-0.6900 -0.7159 -0.7205 -0.7362 -0.7537 -0.7565
-0.7750 -0.7823 -0.7907 -0.8036 -0.8063 -0.8193
-0.8267 -0.8128 -0.8091 -0.8082 -0.7971 -0.7851
-0.7694 -0.7482 -0.7233 -0.7002 -0.6651 -0.6190
-0.5756 -0.5267 -0.4824 -0.4381 -0.3864 -0.3208
-0.2581 -0.2156 -0.1575 -0.0965 -0.0411 0.0161
0.0705 0.1259 0.1785 0.2265 0.2579 0.2948
0.3438 0.3945 0.4250 0.4324 0.4675 0.4979
0.5035 0.5284 0.5616 0.5718 0.5838 0.6059
0.6124 0.6105 0.6096 0.6105 0.6197 0.6391
0.6345 0.6179 0.6188 0.6133 0.6105 0.6114
0.6170 0.6068 0.6022 0.5911 0.5727 0.5810
0.5782 0.5828 0.5754 0.5791 0.5930 0.5773
0.5911 0.5930 0.5874 0.5920 0.5994 0.6040
0.6133 0.6317 0.6003 0.5994 0.6059 0.5976
0.6289 0.6123 0.5902 0.6068 0.6142 0.5948
0.5911 0.5865 0.5782 0.5856 0.5597 0.5357
0.5302 0.5329 0.5219 0.5219 0.5163 0.4942
0.5006 0.5034 0.5154 0.5154 0.5080 0.5163
0.5182 0.5348 0.5385 0.5523 0.5634 0.5606
0.5809 0.5957 0.6012 0.6095 0.6418 0.6557
0.6566 0.6935 0.7138 0.7203 0.7517 0.7794
0.7784 0.8061 0.8311 0.8329 0.8504 0.8569
0.8754 0.8754 0.8726 0.8892 0.8864 0.8975
0.9012 0.8957 0.8883 0.8800 0.8781 0.8753
0.8578 0.8357 0.8338 0.8218 0.7932 0.7784
0.7692 0.7618 0.7480 0.7249 0.7166 0.6990
0.6787 0.6695 0.6519 0.6418 0.6224 0.6058
0.5938 0.5882 0.5707 0.5495 0.5329 0.5098
0.4895 0.4544 0.4433 0.4138 0.3805 0.3593
0.3196 0.2929 0.2393 0.2070 0.1839 0.1387
0.1156 0.0778 0.0445 0.0095 -0.0293 -0.0533
-0.0939 -0.1355 -0.1595 -0.1890 -0.2102 -0.2250
-0.2610 -0.2656 -0.2619 -0.2878 -0.2989 -0.2906
-0.2712 -0.2730 -0.2813 -0.2638 -0.2481 -0.2315
-0.2361 -0.2546 -0.2407 -0.2361 -0.2472 -0.2324
-0.2241 -0.2444 -0.2490 -0.2453 -0.2453 -0.2416
-0.2407 -0.2398 -0.2536 -0.2546 -0.2444 -0.2324
-0.2306 -0.2417 -0.2306 -0.2324 -0.2278 -0.2084
-0.2103 -0.2103 -0.2186 -0.2223 -0.2094 -0.2186
-0.2278 -0.2140 -0.2084 -0.2084 -0.2149 -0.2195
-0.2195 -0.2094 -0.1881 -0.2001 -0.2103 -0.1900
-0.1789 -0.1826 -0.1881 -0.1826 -0.1808 -0.1854
-0.1863 -0.2029 -0.2057 -0.2011 -0.2214 -0.2158
-0.2140 -0.2260 -0.2232 -0.2315 -0.2463 -0.2445
-0.2426 -0.2740 -0.2675 -0.2740 -0.3128 -0.3063
-0.3220 -0.3322 -0.3442 -0.3672 -0.3691 -0.3802
-0.3829 -0.3885 -0.3949 -0.3857 -0.3894 -0.3968
-0.3876 -0.3903 -0.3931 -0.3839 -0.3719 -0.3543
-0.3525 -0.3497 -0.3377 -0.3340 -0.3137 -0.2953
-0.3027 -0.3036 -0.2897 -0.2860 -0.2851 -0.2750
-0.2888 -0.2860 -0.2787 -0.2731 -0.2584 -0.2676
-0.2611 -0.2602 -0.2639 -0.2574 -0.2574 -0.2353
-0.2168 -0.2150 -0.2030 -0.2057 -0.2021 -0.1901
-0.1901 -0.1688 -0.1725 -0.1781 -0.1568 -0.1716
-0.1781 -0.1744 -0.1882 -0.1882 -0.1891 -0.1965
-0.2104 -0.2325 -0.2455 -0.2408 -0.2427 -0.2639
-0.2556 -0.2482 -0.2713 -0.2695 -0.2722 -0.2852
-0.2658 -0.2630 -0.2769 -0.2778 -0.2861 -0.2962
-0.3101 -0.3239 -0.3212 -0.3341 -0.3350 -0.3322
-0.3553 -0.3479 -0.3692 -0.3803 -0.3793 -0.3941
-0.3793 -0.3701 -0.3738 -0.3756 -0.3572 -0.3692
-0.3720 -0.3461 -0.3461 -0.3332 -0.3083 -0.2843
-0.2880 -0.2750 -0.2455 -0.2437 -0.2252 -0.2169
-0.2104 -0.1920 -0.1689 -0.1458 -0.1421 -0.1154
-0.0941 -0.0664 -0.0323 -0.0166 0.0102 0.0314
0.0572 0.0859 0.1182 0.1625 0.1800 0.1985
0.2539 0.2991 0.3222 0.3582 0.4080 0.4394
0.4606 0.5022 0.5308 0.5622 0.6028 0.6286
0.6674 0.7025 0.7274 0.7615 0.8031 0.8428
0.8649 0.9148 0.9489 0.9646 1.0006 1.0301
1.0744 1.1012 1.1280 1.1520 1.1695 1.1944
1.2184 1.2387 1.2461 1.2775 1.2978 1.3061
1.3237 1.3310 1.3606 1.3846 1.3957 1.4197
1.4409 1.4566 1.4898 1.5184 1.5332 1.5526
1.5692 1.6015 1.6283 1.6467 1.6827 1.7187
1.7427 1.7713 1.8018 1.8267 1.8489 1.8812
1.9162 1.9347 1.9495 1.9587 1.9799 1.9984
1.9975 2.0095 2.0178 2.0196 2.0169 2.0178
2.0067 1.9855 1.9965 1.9975 1.9753 1.9513
1.9328 1.9144 1.8802 1.8655 1.8304 1.7861
1.7556 1.7122 1.6651 1.5996 1.5525 1.4935
1.4362 1.3993 1.3393 1.2876 1.2193 1.1584
1.1030 1.0430 0.9848 0.9174 0.8574 0.7910
0.7208 0.6627 0.6128 0.5436 0.4716 0.4061
0.3377 0.2750 0.2067 0.1337 0.0544 -0.0232
-0.0989 -0.1764 -0.2429 -0.3260 -0.4081 -0.4764
-0.5706 -0.6536 -0.7303 -0.8170 -0.9047 -0.9896
-1.0598 -1.1447 -1.2343 -1.3044 -1.3820 -1.4660
-1.5370 -1.6137 -1.6681 -1.7152 -1.7909 -1.8537
-1.9127 -1.9681 -2.0198 -2.0780 -2.1361 -2.1934
-2.2414 -2.3069 -2.3447 -2.3826 -2.4361 -2.4749
-2.5294 -2.5691 -2.6051 -2.6475 -2.6937 -2.7324
-2.7592 -2.7961 -2.8395 -2.8700 -2.8746 -2.9078
-2.9457 -2.9558 -2.9872 -3.0048 -3.0232 -3.0518
-3.0417 -3.0445 -3.0463 -3.0417 -3.0592 -3.0611
-3.0528 -3.0408 -3.0463 -3.0472 -3.0288 -3.0242
-3.0103 -2.9909 -2.9789 -2.9679 -2.9577 -2.9466
-2.9226 -2.8959 -2.8802 -2.8580 -2.8331 -2.8063
-2.7740 -2.7445 -2.7214 -2.6873 -2.6420 -2.6125
-2.5848 -2.5414 -2.4916 -2.4445 -2.4002 -2.3633
-2.3060 -2.2386 -2.1934 -2.1436 -2.0937 -2.0402
-1.9913 -1.9119 -1.8427 -1.7974 -1.7254 -1.6756
-1.5990 -1.5344 -1.4697 -1.3885 -1.3322 -1.2454
-1.1670 -1.0977 -1.0110 -0.9233 -0.8522 -0.7645
-0.6685 -0.5965 -0.5070 -0.4258 -0.3556 -0.2688
-0.1858 -0.0999 -0.0150 0.0616 0.1327 0.1918
0.2711 0.3625 0.4308 0.5065 0.5776 0.6385
0.7105 0.7751 0.8444 0.9034 0.9607 1.0133
1.0511 1.1102 1.1656 1.2127 1.2477 1.2902
1.3373 1.3650 1.4074 1.4342 1.4637 1.4988
1.5117 1.5330 1.5514 1.5819 1.6114 1.6160
1.6308 1.6410 1.6613 1.6816 1.6825 1.7093
1.7323 1.7471 1.7600 1.7766 1.7849 1.7822
1.8071 1.8071 1.8136 1.8440 1.8477 1.8477
1.8597 1.8625 1.8717 1.8948 1.8957 1.8902
1.8855 1.8883 1.8985 1.8966 1.8957 1.8929
1.8828 1.8809 1.8698 1.8597 1.8625 1.8348
1.8200 1.8034 1.7646 1.7388 1.7157 1.6963
1.6695 1.6409 1.5911 1.5597 1.5486 1.5052
1.4748 1.4424 1.4046 1.3668 1.3169 1.2828
1.2458 1.2034 1.1600 1.1258 1.0769 1.0280
1.0067 0.9560 0.9006 0.8461 0.8064 0.7769
0.7252 0.6827 0.6301 0.5840 0.5470 0.5074
0.4630 0.4169 0.3938 0.3670 0.3310 0.2969
0.2655 0.2286 0.2018 0.1833 0.1501 0.1178
0.0929 0.0670 0.0384 0.0061 -0.0280 -0.0557
-0.0945 -0.1213 -0.1361 -0.1730 -0.1961 -0.2062
-0.2136 -0.2237 -0.2496 -0.2588 -0.2607 -0.2625
-0.2570 -0.2708 -0.2865 -0.2911 -0.2967 -0.3050
-0.2985 -0.2893 -0.2985 -0.3004 -0.2995 -0.3068
-0.3050 -0.3032 -0.2995 -0.2782 -0.2625 -0.2579
-0.2459 -0.2367 -0.2441 -0.2422 -0.2293 -0.1998
-0.1739 -0.1795 -0.1749 -0.1758 -0.1675 -0.1462
-0.1481 -0.1546 -0.1730 -0.1684 -0.1629 -0.1776
-0.1823 -0.1952 -0.2053 -0.2016 -0.2026 -0.2247
-0.2376 -0.2220 -0.2238 -0.2376 -0.2460 -0.2487
-0.2644 -0.2570 -0.2441 -0.2552 -0.2450 -0.2617
-0.2681 -0.2460 -0.2321 -0.2155 -0.2137 -0.2183
-0.2063 -0.1887 -0.1841 -0.1537 -0.1389 -0.1269
-0.1094 -0.1047 -0.0743 -0.0651 -0.0484 -0.0337
-0.0143 0.0263 0.0429 0.0706 0.0780 0.0771
0.1057 0.1288 0.1371 0.1500 0.1611 0.1712
0.1934 0.1952 0.1925 0.1943 0.1989 0.1998
0.1906 0.1860 0.1666 0.1491 0.1334 0.1352
0.1315 0.1066 0.0937 0.0651 0.0494 0.0540
0.0411 0.0152 0.0032 -0.0042 -0.0245 -0.0116
-0.0116 -0.0337 -0.0494 -0.0596 -0.0402 -0.0485
-0.0605 -0.0669 -0.0679 -0.0503 -0.0614 -0.0614
-0.0614 -0.0660 -0.0771 -0.0734 -0.0531 -0.0762
-0.0697 -0.0467 -0.0670 -0.0642 -0.0596 -0.0587
-0.0540 -0.0568 -0.0439 -0.0448 -0.0393 -0.0254
-0.0291 -0.0301 -0.0254 -0.0199 -0.0227 -0.0134
0.0050 0.0143 0.0226 0.0401 0.0558 0.0632
0.0789 0.0982 0.1250 0.1389 0.1545 0.1961
0.2136 0.2450 0.2792 0.2985 0.3447 0.3742
0.3927 0.4499 0.4832 0.5007 0.5588 0.6059
0.6438 0.6742 0.7028 0.7508 0.7822 0.8191
0.8505 0.8736 0.9105 0.9364 0.9677 1.0010
1.0213 1.0471 1.0785 1.1007 1.1062 1.1468
1.1865 1.1911 1.2197 1.2382 1.2419 1.2622
1.2825 1.3019 1.3130 1.3250 1.3434 1.3499
1.3591 1.3850 1.3942 1.3997 1.4163 1.4237
1.4459 1.4643 1.4699 1.4856 1.5049 1.5225
1.5280 1.5317 1.5428 1.5631 1.5659 1.5723
1.5982 1.5954 1.5954 1.5991 1.6000 1.6139
1.6111 1.6083 1.6055 1.6055 1.6175 1.6185
1.6083 1.5991 1.6028 1.6111 1.6055 1.6028
1.6018 1.5981 1.5880 1.5760 1.5723 1.5548
1.5381 1.5298 1.5132 1.5077 1.4938 1.4754
1.4541 1.4301 1.4172 1.3914 1.3711 1.3591
1.3434 1.3184 1.2926 1.2778 1.2492 1.2271
1.2058 1.1689 1.1560 1.1338 1.0978 1.0729
1.0360 1.0074 0.9834 0.9538 0.9280 0.9058
0.8689 0.8449 0.8338 0.8070 0.7941 0.7701
0.7526 0.7378 0.7092 0.6926 0.6704 0.6520
0.6344 0.6104 0.5956 0.5809 0.5689 0.5430
0.5153 0.5089 0.4886 0.4544 0.4313 0.4092
0.3842 0.3649 0.3307 0.2966 0.2836 0.2486
0.1941 0.1581 0.1313 0.0842 0.0390 0.0021
-0.0450 -0.0875 -0.1364 -0.1927 -0.2490 -0.2998
-0.3450 -0.4059 -0.4678 -0.5158 -0.5573 -0.6053
-0.6468 -0.6958 -0.7438 -0.7715 -0.8158 -0.8582
-0.8822 -0.9072 -0.9404 -0.9570 -0.9662 -0.9976
-1.0235 -1.0253 -1.0281 -1.0512 -1.0687 -1.0742
-1.0982 -1.1102 -1.0982 -1.1158 -1.1444 -1.1333
-1.1287 -1.1472 -1.1573 -1.1499 -1.1499 -1.1620
-1.1620 -1.1592 -1.1592 -1.1610 -1.1592 -1.1546
-1.1620 -1.1703 -1.1610 -1.1629 -1.1767 -1.1906
-1.1980 -1.1943 -1.2220 -1.2524 -1.2635 -1.2663
-1.2764 -1.2912 -1.3032 -1.3355 -1.3567 -1.3817
-1.4131 -1.4269 -1.4472 -1.4721 -1.4952 -1.5192
-1.5414 -1.5728 -1.5903 -1.6097 -1.6291 -1.6429
-1.6798 -1.6946 -1.7103 -1.7297 -1.7481 -1.7841
-1.7823 -1.7869 -1.8238 -1.8220 -1.8155 -1.8368
-1.8322 -1.8377 -1.8442 -1.8395 -1.8506 -1.8322
-1.8183 -1.8220 -1.8100 -1.8008 -1.7915 -1.7805
-1.7629 -1.7472 -1.7306 -1.7094 -1.6946 -1.6771
-1.6485 -1.6199 -1.6088 -1.5765 -1.5460 -1.5248
-1.4906 -1.4814 -1.4528 -1.4159 -1.3873 -1.3522
-1.3328 -1.3180 -1.2802 -1.2396 -1.2137 -1.1805
-1.1620 -1.1316 -1.1085 -1.0900 -1.0319 -1.0070
-0.9922 -0.9580 -0.9377 -0.9137 -0.8851 -0.8621
-0.8196 -0.7956 -0.7688 -0.7217 -0.6977 -0.6682
-0.6396 -0.6018 -0.5731 -0.5445 -0.4984 -0.4919
-0.4688 -0.4181 -0.4070 -0.3756 -0.3553 -0.3535
-0.3082 -0.2935 -0.2861 -0.2547 -0.2390 -0.2298
-0.2141 -0.1892 -0.1855 -0.1864 -0.1633 -0.1458
-0.1375 -0.1255 -0.1070 -0.0941 -0.0830 -0.0701
-0.0627 -0.0378 -0.0212 -0.0129 0.0102 0.0379
0.0545 0.0601 0.0859 0.1016 0.1145 0.1570
0.1856 0.2096 0.2410 0.2576 0.2899 0.3185
0.3416 0.3896 0.4200 0.4459 0.4874 0.5123
0.5483 0.5834 0.5963 0.6453 0.6877 0.7182
0.7523 0.7782 0.8206 0.8493 0.8926 0.9360
0.9536 0.9868 1.0200 1.0376 1.0616 1.0828
1.0920 1.1077 1.1206 1.1409 1.1520 1.1594
1.1779 1.1917 1.2046 1.1972 1.2074 1.2157
1.2231 1.2397 1.2231 1.2286 1.2415 1.2397
1.2434 1.2425 1.2471 1.2600 1.2664 1.2646
1.2655 1.2784 1.2914 1.2904 1.3071 1.3034
1.2978 1.3135 1.3024 1.3089 1.3024 1.2941
1.2914 1.2784 1.2867 1.2858 1.2840 1.2710
1.2590 1.2627 1.2581 1.2581 1.2433 1.2313
1.2212 1.1981 1.1917 1.1815 1.1686 1.1455
1.1270 1.1261 1.0956 1.0753 1.0624 1.0301
1.0135 0.9849 0.9627 0.9350 0.9203 0.9018
0.8658 0.8593 0.8307 0.8095 0.7901 0.7569
0.7301 0.7135 0.6978 0.6479 0.6249 0.5953
0.5676 0.5510 0.5095 0.4818 0.4485 0.4412
0.4079 0.3655 0.3507 0.3128 0.2796 0.2408
0.2196 0.1882 0.1439 0.1162 0.0848 0.0655
0.0313 0.0036 -0.0232 -0.0472 -0.0665 -0.1035
-0.1099 -0.1450 -0.1921 -0.2032 -0.2290 -0.2659
-0.3139 -0.3481 -0.3850 -0.4349 -0.4690 -0.5263
-0.5909 -0.6306 -0.6915 -0.7487 -0.8013 -0.8816
-0.9232 -0.9786 -1.0506 -1.1013 -1.1706 -1.2269
-1.2823 -1.3441 -1.4050 -1.4696 -1.5176 -1.5656
-1.6173 -1.6949 -1.7475 -1.7798 -1.8629 -1.9109
-1.9524 -2.0170 -2.0530 -2.1103 -2.1583 -2.1924
-2.2395 -2.2949 -2.3374 -2.3752 -2.4352 -2.4730
-2.5044 -2.5552 -2.5884 -2.6143 -2.6641 -2.6983
-2.7167 -2.7537 -2.7841 -2.8081 -2.8506 -2.8866
-2.9115 -2.9531 -2.9789 -2.9918 -3.0186 -3.0537
-3.0814 -3.1063 -3.1395 -3.1644 -3.1995 -3.2134
-3.2328 -3.2549 -3.2531 -3.2605 -3.2586 -3.2780
-3.2780 -3.2798 -3.2845 -3.2632 -3.2697 -3.2494
-3.2291 -3.2272 -3.2180 -3.2069 -3.1903 -3.1728
-3.1460 -3.1359 -3.1072 -3.0786 -3.0602 -3.0288
-3.0039 -2.9568 -2.9180 -2.8829 -2.8460 -2.8026
-2.7546 -2.7343 -2.6900 -2.6623 -2.6236 -2.5802
-2.5654 -2.5257 -2.4897 -2.4482 -2.4205 -2.3956
-2.3596 -2.3430 -2.3143 -2.2737 -2.2414 -2.2027
-2.1704 -2.1482 -2.1104 -2.0605 -2.0384 -2.0162
-1.9839 -1.9636 -1.9313 -1.9008 -1.8694 -1.8418
-1.8094 -1.7781 -1.7605 -1.7347 -1.7107 -1.6848
-1.6581 -1.6322 -1.6064 -1.5750 -1.5464 -1.5261
-1.5039 -1.4845 -1.4725 -1.4458 -1.4172 -1.3913
-1.3535 -1.3239 -1.2852 -1.2501 -1.2039 -1.1633
-1.1375 -1.0932 -1.0544 -1.0055 -0.9649 -0.9252
-0.8716 -0.8199 -0.7719 -0.7433 -0.6944 -0.6261
-0.5836 -0.5356 -0.4738 -0.4230 -0.3750 -0.3233
-0.2753 -0.2255 -0.1757 -0.1193 -0.0593 -0.0344
0.0154 0.0800 0.0985 0.1326 0.1779 0.2074
0.2416 0.2720 0.3025 0.3283 0.3431 0.3671
0.3828 0.4012 0.4354 0.4419 0.4585 0.4852
0.4991 0.5296 0.5222 0.5369 0.5563 0.5462
0.5637 0.5702 0.5877 0.5840 0.5794 0.6006
0.5951 0.5969 0.6034 0.6108 0.6311 0.6366
0.6477 0.6661 0.6874 0.7068 0.7188 0.7446
0.7575 0.7806 0.8101 0.8268 0.8489 0.8729
0.9163 0.9394 0.9643 0.9874 1.0058 1.0372
1.0566 1.1037 1.1332 1.1424 1.1784 1.2135
1.2366 1.2606 1.2883 1.3077 1.3280 1.3501
1.3723 1.3861 1.4092 1.4360 1.4350 1.4461
1.4710 1.4784 1.4858 1.4913 1.4969 1.5089
1.5135 1.4950 1.4747 1.4821 1.4710 1.4415
1.4258 1.4092 1.3962 1.3686 1.3538 1.3390
1.3159 1.2965 1.2652 1.2578 1.2384 1.2135
1.1867 1.1572 1.1516 1.1332 1.1082 1.0833
1.0621 1.0455 1.0224 0.9993 0.9698 0.9458
0.9338 0.9098 0.8848 0.8821 0.8664 0.8359
0.8119 0.7990 0.7953 0.7685 0.7538 0.7454
0.7362 0.7408 0.7279 0.7270 0.7233 0.7344
0.7381 0.7214 0.7270 0.7205 0.7279 0.7380
0.7362 0.7344 0.7224 0.7196 0.7113 0.7076
0.7094 0.6974 0.7131 0.7057 0.6817 0.6743
0.6577 0.6623 0.6430 0.6402 0.6430 0.6356
0.6346 0.6106 0.6199 0.6162 0.5968 0.5977
0.5857 0.5866 0.5839 0.5756 0.5719 0.5673
0.5691 0.5774 0.5737 0.5700 0.5894 0.5792
0.5682 0.5599 0.5552 0.5663 0.5654 0.5691
0.5645 0.5700 0.5654 0.5432 0.5377 0.5395
0.5414 0.5294 0.5202 0.5137 0.5091 0.5100
0.4998 0.4989 0.4980 0.4832 0.4878 0.4805
0.4768 0.4869 0.4675 0.4666 0.4814 0.4814
0.4915 0.4943 0.4952 0.5100 0.5220 0.5284
0.5238 0.5377 0.5691 0.5783 0.5977 0.6226
0.6410 0.6540 0.6641 0.6927 0.7029 0.7260
0.7435 0.7260 0.7472 0.7573 0.7592 0.7592
0.7481 0.7666 0.7610 0.7481 0.7407 0.7324
0.7278 0.7158 0.7167 0.6992 0.6789 0.6733
0.6659 0.6613 0.6419 0.6447 0.6438 0.6235
0.6152 0.6069 0.5995 0.6004 0.6050 0.5884
0.5847 0.5985 0.5884 0.5930 0.5967 0.5801
0.6068 0.6345 0.6253 0.6428 0.6530 0.6659
0.6853 0.6890 0.7195 0.7333 0.7444 0.7638
0.7739 0.7905 0.8007 0.8238 0.8394 0.8644
0.8893 0.8819 0.9142 0.9410 0.9382 0.9668
0.9954 1.0093 1.0167 1.0397 1.0794 1.0997
1.1173 1.1357 1.1588 1.1884 1.1994 1.2114
1.2382 1.2705 1.2917 1.3019 1.3203 1.3397
1.3693 1.3886 1.3923 1.4099 1.4302 1.4542
1.4791 1.4837 1.5040 1.5234 1.5243 1.5502
1.5576 1.5732 1.6000 1.6019 1.6194 1.6268
1.6379 1.6397 1.6489 1.6739 1.6729 1.6739
1.6711 1.6969 1.7126 1.7006 1.7292 1.7394
1.7255 1.7320 1.7514 1.7458 1.7366 1.7514
1.7486 1.7366 1.7311 1.7311 1.7117 1.7061
1.7071 1.6664 1.6572 1.6434 1.6101 1.5972
1.5704 1.5677 1.5455 1.5086 1.4975 1.4551
1.4421 1.4172 1.3738 1.3674 1.3434 1.3258
1.3129 1.2861 1.2621 1.2372 1.2178 1.2150
1.1883 1.1615 1.1550 1.1255 1.1190 1.1052
1.0683 1.0489 1.0406 1.0166 0.9824 0.9723
0.9409 0.9224 0.9086 0.8901 0.8781 0.8384
0.8190 0.7996 0.7766 0.7572 0.7295 0.7092
0.6999 0.6750 0.6390 0.6150 0.5892 0.5596
0.5282 0.5015 0.4793 0.4507 0.4119 0.3704
0.3501 0.3169 0.2809 0.2689 0.2412 0.2125
0.2015 0.1738 0.1415 0.1276 0.0999 0.0824
0.0787 0.0556 0.0316 0.0095 -0.0072 -0.0256
-0.0441 -0.0690 -0.0875 -0.0930 -0.1235 -0.1355
-0.1318 -0.1604 -0.1826 -0.1844 -0.1936 -0.1909
-0.2075 -0.2333 -0.2195 -0.2324 -0.2407 -0.2370
-0.2675 -0.2721 -0.2601 -0.2749 -0.2887 -0.2915
-0.3100 -0.3238 -0.3173 -0.3321 -0.3404 -0.3404
-0.3552 -0.3561 -0.3423 -0.3312 -0.3460 -0.3533
-0.3533 -0.3524 -0.3423 -0.3524 -0.3524 -0.3460
-0.3552 -0.3423 -0.3321 -0.3441 -0.3404 -0.3367
-0.3414 -0.3386 -0.3257 -0.3247 -0.3220 -0.3044
-0.3008 -0.2971 -0.2952 -0.2961 -0.2777 -0.2620
-0.2528 -0.2398 -0.2297 -0.2140 -0.2029 -0.1845
-0.1798 -0.1715 -0.1429 -0.1392 -0.1088 -0.0894
-0.0885 -0.0562 -0.0423 -0.0192 -0.0026 0.0094
0.0306 0.0361 0.0592 0.0583 0.0666 0.0841
0.0924 0.1072 0.1137 0.1367 0.1284 0.1275
0.1367 0.1247 0.1321 0.1211 0.1294 0.1340
0.1109 0.1127 0.1063 0.1007 0.1063 0.1007
0.0887 0.0767 0.0657 0.0527 0.0509 0.0546
0.0417 0.0269 0.0306 0.0075 -0.0128 -0.0174
-0.0377 -0.0534 -0.0774 -0.0784 -0.0941 -0.1291
-0.1448 -0.1661 -0.1771 -0.2030 -0.2242 -0.2464
-0.2639 -0.2676 -0.3045 -0.3202 -0.3378 -0.3710
-0.3848 -0.4107 -0.4319 -0.4467 -0.4707 -0.5030
-0.5251 -0.5362 -0.5519 -0.5731 -0.6008 -0.6295
-0.6488 -0.6461 -0.6544 -0.6848 -0.6913 -0.7052
-0.7273 -0.7412 -0.7605 -0.7753 -0.7790 -0.7855
-0.8049 -0.8095 -0.8196 -0.8289 -0.8224 -0.8372
-0.8409 -0.8399 -0.8510 -0.8538 -0.8575 -0.8510
-0.8603 -0.8621 -0.8603 -0.8676 -0.8713 -0.8796
-0.8843 -0.8870 -0.8926 -0.9055 -0.9221 -0.9369
-0.9516 -0.9544 -0.9636 -0.9840 -0.9913 -1.0006
-1.0117 -1.0292 -1.0477 -1.0624 -1.0855 -1.0846
-1.0994 -1.1224 -1.1206 -1.1280 -1.1372 -1.1510
-1.1464 -1.1511 -1.1704 -1.1714 -1.1806 -1.1898
-1.1889 -1.1898 -1.1834 -1.1677 -1.1575 -1.1529
-1.1557 -1.1584 -1.1511 -1.1483 -1.1261 -1.1077
-1.0929 -1.0661 -1.0606 -1.0385 -1.0015 -0.9858
-0.9748 -0.9489 -0.9166 -0.8825 -0.8409 -0.8197
-0.7708 -0.7219 -0.7071 -0.6683 -0.6332 -0.5917
-0.5585 -0.5271 -0.4791 -0.4459 -0.4052 -0.3720
-0.3379 -0.3019 -0.2649 -0.2253 -0.1874 -0.1339
-0.0988 -0.0526 0.0046 0.0443 0.0941 0.1403
0.1855 0.2418 0.2926 0.3526 0.4117 0.4495
0.4993 0.5640 0.6083 0.6489 0.6978 0.7476
0.7938 0.8473 0.9073 0.9516 0.9886 1.0255
1.0772 1.1335 1.1741 1.2184 1.2618 1.3107
1.3587 1.4002 1.4409 1.4842 1.5285 1.5609
1.5950 1.6172 1.6273 1.6532 1.6855 1.7039
1.7325 1.7445 1.7482 1.7685 1.7722 1.7787
1.7888 1.8119 1.8285 1.8285 1.8350 1.8174
1.8248 1.8525 1.8553 1.8507 1.8424 1.8341
1.8322 1.8294 1.8294 1.8230 1.7962 1.7962
1.8017 1.7694 1.7537 1.7427 1.7233 1.7057
1.6743 1.6476 1.6282 1.5950 1.5553 1.5405
1.5276 1.4934 1.4648 1.4362 1.3983 1.3651
1.3273 1.2931 1.2737 1.2313 1.1860 1.1528
1.1122 1.0808 1.0291 0.9922 0.9626 0.9091
0.8639 0.8149 0.7909 0.7605 0.7097 0.6709
0.6285 0.5906 0.5676 0.5399 0.4956 0.4522
0.4088 0.3875 0.3672 0.3192 0.2879 0.2583
0.2140 0.1808 0.1586 0.1328 0.0903 0.0395
0.0257 0.0035 -0.0362 -0.0546 -0.0906 -0.1137
-0.1405 -0.1802 -0.2005 -0.2291 -0.2503 -0.2688
-0.3048 -0.3269 -0.3509 -0.3703 -0.3934 -0.4165
-0.4386 -0.4746 -0.4885 -0.5189 -0.5282 -0.5549
-0.5956 -0.5956 -0.6334 -0.6602 -0.6768 -0.6953
-0.7026 -0.7248 -0.7349 -0.7433 -0.7728 -0.7903
-0.7986 -0.8208 -0.8254 -0.8448 -0.8697 -0.8836
-0.9030 -0.9057 -0.9233 -0.9362 -0.9565 -0.9897
-0.9943 -1.0211 -1.0414 -1.0562 -1.0885 -1.1051
-1.1264 -1.1522 -1.1854 -1.2122 -1.2445 -1.2685
-1.2842 -1.3239 -1.3461 -1.3654 -1.4042 -1.4301
-1.4467 -1.4661 -1.4910 -1.5168 -1.5251 -1.5464
-1.5768 -1.5814 -1.5796 -1.5971 -1.6267 -1.6211
-1.6350 -1.6433 -1.6285 -1.6525 -1.6571 -1.6452
-1.6553 -1.6701 -1.6664 -1.6590 -1.6535 -1.6719
-1.6784 -1.6590 -1.6747 -1.6756 -1.6775 -1.6747
-1.6581 -1.6775 -1.6959 -1.6922 -1.6886 -1.6950
-1.6858 -1.6821 -1.6941 -1.6996 -1.7070 -1.7153
-1.7172 -1.7153 -1.7209 -1.7227 -1.7126 -1.7172
-1.7246 -1.7246 -1.7320 -1.7320 -1.7283 -1.7320
-1.7301 -1.7440 -1.7477 -1.7569 -1.7717 -1.7698
-1.7901 -1.8077 -1.8058 -1.8169 -1.8427 -1.8446
-1.8400 -1.8594 -1.8917 -1.8917 -1.8861 -1.9092
-1.9083 -1.9304 -1.9452 -1.9443 -1.9627 -1.9618
-1.9655 -1.9821 -1.9877 -1.9877 -1.9886 -1.9969
-2.0034 -2.0024 -2.0172 -2.0015 -1.9886 -2.0126
-2.0025 -2.0126 -2.0218 -2.0089 -2.0080 -2.0098
-2.0246 -2.0338 -2.0292 -2.0292 -2.0338 -2.0302
-2.0265 -2.0237 -2.0274 -2.0274 -2.0172 -2.0283
-2.0228 -2.0256 -2.0366 -2.0209 -2.0274 -2.0154
-2.0108 -2.0237 -2.0145 -2.0228 -2.0062 -2.0099
-2.0200 -1.9942 -2.0099 -2.0043 -1.9923 -1.9960
-1.9803 -1.9850 -1.9674 -1.9499 -1.9416 -1.9231
-1.9277 -1.9139 -1.8899 -1.8908 -1.8714 -1.8483
-1.8456 -1.8197 -1.7939 -1.7902 -1.7782 -1.7533
-1.7477 -1.7357 -1.7099 -1.6997 -1.6665 -1.6425
-1.6305 -1.6250 -1.6148 -1.5927 -1.5881 -1.5567
-1.5327 -1.5290 -1.5013 -1.4745 -1.4616 -1.4441
-1.4228 -1.4007 -1.3684 -1.3545 -1.3287 -1.3028
-1.2798 -1.2392 -1.2281 -1.2041 -1.1810 -1.1561
-1.1247 -1.1007 -1.0712 -1.0573 -1.0241 -0.9890
-0.9706 -0.9484 -0.9262 -0.8995 -0.8598 -0.8376
-0.8238 -0.7943 -0.7878 -0.7739 -0.7481 -0.7296
-0.6927 -0.6798 -0.6678 -0.6364 -0.6180 -0.5921
-0.5626 -0.5478 -0.5330 -0.5044 -0.4906 -0.4804
-0.4610 -0.4324 -0.4075 -0.4066 -0.3863 -0.3595
-0.3374 -0.3207 -0.3051 -0.2709 -0.2515 -0.2257
-0.2091 -0.2026 -0.1814 -0.1721 -0.1481 -0.1297
-0.1075 -0.0826 -0.0688 -0.0457 -0.0254 -0.0041
0.0152 0.0337 0.0512 0.0762 0.0983 0.1029
0.1269 0.1417 0.1472 0.1758 0.1998 0.2165
0.2488 0.2774 0.2848 0.3097 0.3254 0.3328
0.3743 0.3992 0.4094 0.4288 0.4611 0.4961
0.5063 0.5312 0.5598 0.5691 0.6014 0.6364
0.6604 0.7010 0.7167 0.7232 0.7583 0.7749
0.7906 0.8183 0.8303 0.8543 0.8773 0.8829
0.9078 0.9115 0.9253 0.9558 0.9475 0.9558
0.9641 0.9678 0.9881 0.9881 0.9798 0.9816
0.9826 0.9890 1.0075 1.0010 1.0066 1.0176
1.0130 1.0241 1.0213 1.0186 1.0186 1.0213
1.0195 1.0084 1.0112 1.0075 1.0204 1.0232
1.0195 1.0435 1.0352 1.0361 1.0472 1.0416
1.0592 1.0619 1.0582 1.0638 1.0711 1.0711
1.0711 1.0813 1.0665 1.0601 1.0582 1.0434
1.0462 1.0499 1.0444 1.0434 1.0536 1.0407
1.0277 1.0416 1.0333 1.0296 1.0277 1.0084
1.0074 1.0084 1.0084 1.0047 1.0010 1.0000
0.9880 0.9797 0.9816 0.9973 1.0065 0.9991
1.0130 1.0222 1.0222 1.0379 1.0480 1.0702
1.0886 1.0896 1.1053 1.1265 1.1394 1.1542
1.1671 1.1856 1.2031 1.2049 1.2216 1.2382
1.2557 1.2668 1.2779 1.2852 1.2926 1.3120
1.3092 1.3323 1.3563 1.3425 1.3517 1.3692
1.3831 1.3775 1.3766 1.4006 1.4034 1.4025
1.4080 1.4034 1.4025 1.4191 1.4154 1.4098
1.4246 1.4071 1.4052 1.4237 1.4237 1.4154
1.4108 1.4274 1.4264 1.4144 1.4135 1.4089
1.4126 1.4024 1.3960 1.4015 1.3914 1.3867
1.3831 1.3867 1.3692 1.3627 1.3849 1.3794
1.3747 1.3849 1.3840 1.3803 1.3978 1.3941
1.3913 1.4135 1.4292 1.4375 1.4421 1.4532
1.4495 1.4560 1.4689 1.4716 1.4763 1.4827
1.4873 1.4929 1.5012 1.5058 1.5132 1.5178
1.5363 1.5390 1.5455 1.5686 1.5602 1.5649
1.5750 1.5916 1.5953 1.5935 1.6064 1.6073
1.6202 1.6304 1.6184 1.6101 1.6138 1.6008
1.6101 1.6230 1.6073 1.6092 1.5916 1.5741
1.5768 1.5676 1.5538 1.5436 1.5196 1.5085
1.5215 1.4947 1.4688 1.4596 1.4393 1.4171
1.3894 1.3848 1.3654 1.3248 1.3202 1.3036
1.2805 1.2574 1.2297 1.2159 1.1799 1.1614
1.1670 1.1467 1.1273 1.1153 1.0987 1.0802
1.0562 1.0340 1.0230 1.0100 0.9860 0.9676
0.9380 0.9242 0.9048 0.8697 0.8688 0.8374
0.7996 0.7811 0.7543 0.7230 0.6990 0.6703
0.6306 0.6150 0.5771 0.5531 0.5263 0.4783
0.4543 0.4045 0.3823 0.3528 0.2993 0.2725
0.2226 0.1968 0.1682 0.1156 0.0934 0.0445
0.0122 -0.0072 -0.0608 -0.0848 -0.1143 -0.1448
-0.1780 -0.2241 -0.2408 -0.2629 -0.2795 -0.3008
-0.3202 -0.3285 -0.3488 -0.3635 -0.3811 -0.3875
-0.4097 -0.4245 -0.4235 -0.4466 -0.4540 -0.4559
-0.4586 -0.4642 -0.4771 -0.4660 -0.4669 -0.4817
-0.4743 -0.4669 -0.4605 -0.4466 -0.4429 -0.4476
-0.4476 -0.4328 -0.4319 -0.4245 -0.4014 -0.4033
-0.3866 -0.3645 -0.3553 -0.3396 -0.3405 -0.3193
-0.3036 -0.2943 -0.2648 -0.2685 -0.2491 -0.2122
-0.2150 -0.2196 -0.2057 -0.1974 -0.1974 -0.1891
-0.1864 -0.1725 -0.1753 -0.1845 -0.1725 -0.1716
-0.1550 -0.1596 -0.1531 -0.1430 -0.1494 -0.1513
-0.1753 -0.1568 -0.1531 -0.1605 -0.1550 -0.1541
-0.1356 -0.1605 -0.1661 -0.1541 -0.1541 -0.1513
-0.1688 -0.1716 -0.1753 -0.1818 -0.1725 -0.1762
-0.1882 -0.1725 -0.1596 -0.1689 -0.1605 -0.1550
-0.1476 -0.1356 -0.1292 -0.1190 -0.1181 -0.1116
-0.0950 -0.0886 -0.0784 -0.0692 -0.0747 -0.0729
-0.0498 -0.0452 -0.0516 -0.0295 -0.0230 -0.0175
-0.0129 -0.0221 -0.0027 0.0084 0.0120 0.0259
0.0287 0.0351 0.0517 0.0582 0.0637 0.0776
0.0914 0.1145 0.1265 0.1376 0.1542 0.1745
0.1883 0.1883 0.1976 0.2179 0.2345 0.2520
0.2760 0.2936 0.3129 0.3259 0.3508 0.3739
0.3951 0.4219 0.4329 0.4560 0.4671 0.4828
0.4975 0.5160 0.5474 0.5557 0.5631 0.5908
0.6055 0.6129 0.6323 0.6397 0.6572 0.6582
0.6508 0.6775 0.6794 0.6738 0.6720 0.6674
0.6748 0.6572 0.6628 0.6840 0.6618 0.6581
0.6517 0.6378 0.6498 0.6332 0.6046 0.5972
0.5944 0.5704 0.5464 0.5381 0.5160 0.4864
0.4707 0.4661 0.4523 0.4209 0.3830 0.3710
0.3535 0.3175 0.3000 0.2769 0.2492 0.2197
0.1781 0.1310 0.1061 0.0877 0.0433 0.0166
-0.0130 -0.0591 -0.0868 -0.1191 -0.1736 -0.2170
-0.2502 -0.2908 -0.3213 -0.3573 -0.3794 -0.4016
-0.4431 -0.4607 -0.5050 -0.5428 -0.5474 -0.5797
-0.6056 -0.6314 -0.6388 -0.6388 -0.6638 -0.6868
-0.6998 -0.6979 -0.7210 -0.7182 -0.7099 -0.7275
-0.7228 -0.7275 -0.7505 -0.7487 -0.7210 -0.7072
-0.6952 -0.7044 -0.6850 -0.6610 -0.6721 -0.6518
-0.6472 -0.6389 -0.6093 -0.6019 -0.5899 -0.5724
-0.5613 -0.5512 -0.5466 -0.5318 -0.5142 -0.5069
-0.5013 -0.5059 -0.4958 -0.4838 -0.4699 -0.4681
-0.4764 -0.4579 -0.4515 -0.4570 -0.4681 -0.4524
-0.4413 -0.4441 -0.4173 -0.4266 -0.4266 -0.4081
-0.4118 -0.4238 -0.4220 -0.4072 -0.4201 -0.4146
-0.4146 -0.4192 -0.4118 -0.4238 -0.4340 -0.4478
-0.4570 -0.4617 -0.4718 -0.4801 -0.4958 -0.5041
-0.5060 -0.5051 -0.5087 -0.5208 -0.5346 -0.5540
-0.5863 -0.5937 -0.5826 -0.6149 -0.6297 -0.6371
-0.6749 -0.6795 -0.6925 -0.7165 -0.7303 -0.7497
-0.7672 -0.7857 -0.8060 -0.8245 -0.8438 -0.8651
-0.8706 -0.8909 -0.9140 -0.9186 -0.9463 -0.9722
-0.9860 -1.0082 -1.0192 -1.0368 -1.0534 -1.0543
-1.0737 -1.0783 -1.0792 -1.0986 -1.1088 -1.1208
-1.1365 -1.1466 -1.1448 -1.1448 -1.1476 -1.1540
-1.1568 -1.1633 -1.1596 -1.1577 -1.1697 -1.1651
-1.1651 -1.1494 -1.1411 -1.1337 -1.1180 -1.1263
-1.1153 -1.0977 -1.0820 -1.0719 -1.0747 -1.0562
-1.0387 -1.0322 -1.0008 -0.9777 -0.9740 -0.9510
-0.9316 -0.9085 -0.8836 -0.8624 -0.8421 -0.8153
-0.7848 -0.7654 -0.7396 -0.7239 -0.6990 -0.6648
-0.6399 -0.6113 -0.5818 -0.5411 -0.5125 -0.4811
-0.4239 -0.4027 -0.3796 -0.3335 -0.3187 -0.2882
-0.2448 -0.2135 -0.1802 -0.1525 -0.1202 -0.0916
-0.0510 -0.0095 0.0071 0.0284 0.0708 0.1050
0.1244 0.1613 0.1871 0.2130 0.2407 0.2564
0.2905 0.3117 0.3293 0.3644 0.3884 0.4059
0.4262 0.4373 0.4447 0.4770 0.4853 0.4899
0.5102 0.5194 0.5379 0.5425 0.5628 0.5785
0.5766 0.5988 0.6043 0.6053 0.6191 0.6311
0.6339 0.6394 0.6542 0.6606 0.6625 0.6671
0.6763 0.6736 0.6837 0.7049 0.6985 0.6994
0.7225 0.7345 0.7317 0.7492 0.7622 0.7566
0.7742 0.7751 0.7714 0.7852 0.7954 0.8009
0.8028 0.8185 0.8268 0.8314 0.8397 0.8305
0.8369 0.8581 0.8618 0.8572 0.8480 0.8609
0.8646 0.8508 0.8517 0.8498 0.8406 0.8258
0.8258 0.8138 0.7991 0.8046 0.8055 0.7834
0.7594 0.7594 0.7474 0.7381 0.7326 0.7077
0.6874 0.6744 0.6523 0.6320 0.6163 0.5803
0.5683 0.5572 0.5277 0.5120 0.4713 0.4446
0.4261 0.3892 0.3633 0.3301 0.3015 0.2692
0.2406 0.2221 0.1796 0.1353 0.1067 0.0864
0.0458 0.0273 0.0079 -0.0428 -0.0631 -0.0982
-0.1296 -0.1573 -0.1942 -0.2201 -0.2570 -0.2828
-0.3078 -0.3391 -0.3816 -0.4121 -0.4462 -0.4831
-0.5025 -0.5404 -0.5690 -0.5921 -0.6281 -0.6715
-0.7028 -0.7278 -0.7582 -0.7961 -0.8247 -0.8432
-0.8819 -0.9041 -0.9290 -0.9604 -0.9872 -1.0379
-1.0675 -1.0989 -1.1404 -1.1653 -1.2069 -1.2438
-1.2687 -1.3075 -1.3370 -1.3490 -1.3896 -1.4376
-1.4598 -1.4902 -1.5346 -1.5613 -1.5761 -1.6139
-1.6462 -1.6841 -1.7238 -1.7376 -1.7681 -1.7912
-1.8124 -1.8429 -1.8669 -1.8798 -1.8715 -1.8946
-1.9278 -1.9352 -1.9500 -1.9647 -1.9749 -1.9832
-1.9924 -2.0017 -2.0081 -2.0210 -2.0201 -2.0146
-2.0340 -2.0432 -2.0414 -2.0607 -2.0764 -2.0663
-2.0681 -2.0718 -2.0672 -2.0866 -2.0774 -2.0672
-2.0718 -2.0691 -2.0691 -2.0460 -2.0571 -2.0506
-2.0284 -2.0395 -2.0100 -1.9924 -1.9832 -1.9648
-1.9546 -1.9278 -1.9140 -1.8900 -1.8595 -1.8568
-1.8346 -1.8088 -1.8023 -1.7875 -1.7645 -1.7294
-1.7063 -1.6805 -1.6435 -1.6352 -1.6159 -1.5919
-1.5669 -1.5355 -1.5217 -1.4885 -1.4617 -1.4534
-1.4303 -1.4008 -1.3759 -1.3491 -1.3297 -1.3057
-1.2734 -1.2596 -1.2199 -1.1820 -1.1590 -1.1193
-1.0851 -1.0537 -1.0205 -0.9900 -0.9420 -0.8913
-0.8516 -0.8073 -0.7694 -0.7270 -0.6790 -0.6430
-0.5867 -0.5387 -0.5137 -0.4676 -0.4113 -0.3744
-0.3347 -0.2922 -0.2442 -0.1934 -0.1574 -0.1067
-0.0698 -0.0273 0.0346 0.0650 0.1176 0.1610
0.1795 0.2349 0.2865 0.3189 0.3548 0.3927
0.4305 0.4675 0.5090 0.5459 0.5791 0.6198
0.6576 0.6844 0.7250 0.7665 0.7758 0.7951
0.8441 0.8810 0.8874 0.9059 0.9345 0.9539
0.9807 1.0056 1.0185 1.0268 1.0490 1.0628
1.0693 1.0896 1.1062 1.1099 1.1182 1.1320
1.1394 1.1283 1.1311 1.1450 1.1283 1.1330
1.1431 1.1302 1.1339 1.1320 1.1246 1.1163
1.1025 1.0923 1.0785 1.0665 1.0517 1.0213
0.9908 0.9705 0.9566 0.9271 0.9040 0.8726
0.8514 0.8468 0.8228 0.8080 0.7729 0.7646
0.7591 0.7185 0.7222 0.6982 0.6603 0.6437
0.6179 0.5883 0.5726 0.5708 0.5375 0.5089
0.4849 0.4628 0.4489 0.4148 0.4046 0.3982
0.3806 0.3585 0.3363 0.3215 0.2985 0.2837
0.2652 0.2588 0.2357 0.2052 0.2089 0.1941
0.1701 0.1563 0.1388 0.1268 0.1000 0.0815
0.0834 0.0760 0.0695 0.0455 0.0400 0.0446
0.0252 0.0307 0.0418 0.0363 0.0280 0.0409
0.0557 0.0483 0.0483 0.0538 0.0501 0.0473
0.0529 0.0575 0.0649 0.0704 0.0704 0.0704
0.0741 0.0704 0.0880 0.1009 0.0990 0.1230
0.1313 0.1461 0.1673 0.1756 0.1812 0.1923
0.2190 0.2273 0.2412 0.2624 0.2790 0.2929
0.2947 0.3076 0.3233 0.3289 0.3436 0.3612
0.3713 0.3972 0.4313 0.4424 0.4645 0.4987
0.5070 0.5328 0.5781 0.5984 0.6039 0.6288
0.6658 0.6879 0.7091 0.7359 0.7654 0.7802
0.8014 0.8273 0.8393 0.8698 0.8864 0.8937
0.9150 0.9270 0.9436 0.9574 0.9621 0.9814
0.9999 1.0073 1.0156 1.0248 1.0414 1.0488
1.0599 1.0756 1.0737 1.0839 1.0894 1.0903
1.1014 1.1134 1.1236 1.1310 1.1300 1.1328
1.1531 1.1586 1.1614 1.1688 1.1789 1.1799
1.1734 1.1725 1.1799 1.1891 1.1734 1.1771
1.1845 1.1789 1.1826 1.1762 1.1799 1.1826
1.1669 1.1559 1.1623 1.1632 1.1522 1.1485
1.1374 1.1079 1.0866 1.0848 1.0617 1.0294
1.0174 0.9962 0.9795 0.9675 0.9334 0.9131
0.9048 0.8872 0.8669 0.8401 0.8106 0.7811
0.7709 0.7488 0.7192 0.6961 0.6592 0.6398
0.6121 0.5826 0.5641 0.5401 0.5004 0.4783
0.4534 0.4054 0.3823 0.3564 0.3334 0.2983
0.2586 0.2401 0.2152 0.1949 0.1672 0.1284
0.1044 0.0823 0.0500 0.0213 -0.0073 -0.0340
-0.0525 -0.0747 -0.0959 -0.1116 -0.1374 -0.1623
-0.1734 -0.1993 -0.2131 -0.2205 -0.2537 -0.2639
-0.2833 -0.3174 -0.3230 -0.3368 -0.3544 -0.3691
-0.3784 -0.4033 -0.4162 -0.4024 -0.4208 -0.4310
-0.4384 -0.4393 -0.4522 -0.4725 -0.4707 -0.4716
-0.4818 -0.4993 -0.5067 -0.5224 -0.5196 -0.5113
-0.5187 -0.5288 -0.5445 -0.5335 -0.5224 -0.5279
-0.5298 -0.5362 -0.5492 -0.5362 -0.5215 -0.5141
-0.5076 -0.5178 -0.5104 -0.5002 -0.4790 -0.4698
-0.4781 -0.4412 -0.4292 -0.4264 -0.4006 -0.3747
-0.3526 -0.3332 -0.2981 -0.2926 -0.2787 -0.2427
-0.2113 -0.1827 -0.1578 -0.1393 -0.1163 -0.0756
-0.0627 -0.0267 0.0074 0.0176 0.0508 0.0674
0.0979 0.1256 0.1468 0.1782 0.2003 0.2326
0.2493 0.2751 0.3213 0.3333 0.3489 0.3794
0.3979 0.4256 0.4357 0.4431 0.4717 0.4865
0.5022 0.5132 0.5382 0.5668 0.5677 0.5991
0.6240 0.6212 0.6572 0.6692 0.6711 0.6914
0.6868 0.7006 0.7154 0.7329 0.7542 0.7532
0.7588 0.7772 0.7966 0.8021 0.8105 0.8206
0.8289 0.8437 0.8492 0.8603 0.8788 0.8908
0.8926 0.8907 0.8935 0.9009 0.9083 0.9055
0.9203 0.9314 0.9295 0.9387 0.9378 0.9443
0.9350 0.9194 0.9166 0.9037 0.9046 0.8889
0.8713 0.8732 0.8529 0.8390 0.8307 0.8150
0.8095 0.7975 0.7615 0.7393 0.7440 0.7126
0.6793 0.6830 0.6553 0.6359 0.6350 0.6036
0.5944 0.5787 0.5603 0.5639 0.5390 0.5224
0.5141 0.5049 0.4975 0.4596 0.4476 0.4449
0.4218 0.4135 0.3969 0.3839 0.3701 0.3627
0.3525 0.3341 0.3415 0.3239 0.3036 0.3008
0.2852 0.2685 0.2528 0.2390 0.2242 0.2168
0.2039 0.1938 0.1808 0.1735 0.1771 0.1707
0.1605 0.1467 0.1458 0.1430 0.1365 0.1467
0.1365 0.1319 0.1347 0.1245 0.1301 0.1282
0.1236 0.1162 0.1097 0.1134 0.1070 0.1116
0.1180 0.1116 0.1171 0.1180 0.1171 0.1208
0.1245 0.1337 0.1319 0.1356 0.1300 0.1263
0.1476 0.1559 0.1688 0.1762 0.1762 0.1873
0.2011 0.2131 0.2251 0.2316 0.2353 0.2593
0.2703 0.2666 0.2777 0.3045 0.3248 0.3331
0.3617 0.3719 0.3903 0.4134 0.4217 0.4531
0.4752 0.4872 0.5066 0.5269 0.5426 0.5722
0.5998 0.6183 0.6432 0.6635 0.6995 0.7180
0.7328 0.7577 0.7669 0.7900 0.8103 0.8205
0.8324 0.8528 0.8620 0.8749 0.8740 0.8611
0.8906 0.9109 0.9109 0.9164 0.9257 0.9266
0.9266 0.9312 0.9432 0.9414 0.9386 0.9358
0.9247 0.9312 0.9358 0.9266 0.9146 0.9201
0.9137 0.8943 0.8850 0.8657 0.8657 0.8573
0.8306 0.8241 0.8112 0.7936 0.7881 0.7761
0.7669 0.7733 0.7512 0.7253 0.7410 0.7318
0.7106 0.6958 0.6699 0.6552 0.6422 0.6275
0.6081 0.5887 0.5684 0.5601 0.5462 0.5019
0.4881 0.4678 0.4345 0.4336 0.4087 0.3875
0.3616 0.3339 0.3349 0.3164 0.2850 0.2499
0.2093 0.1872 0.1742 0.1410 0.1133 0.0976
0.0764 0.0468 0.0210 -0.0067 -0.0409 -0.0621
-0.0852 -0.1110 -0.1350 -0.1609 -0.1784 -0.1895
-0.2181 -0.2439 -0.2550 -0.2809 -0.3141 -0.3307
-0.3519 -0.3787 -0.3944 -0.4249 -0.4378 -0.4609
-0.4895 -0.4932 -0.5190 -0.5532 -0.5735 -0.5873
-0.6150 -0.6455 -0.6621 -0.6787 -0.7027 -0.7203
-0.7452 -0.7747 -0.7877 -0.8070 -0.8283 -0.8393
-0.8541 -0.8615 -0.8781 -0.9067 -0.9178 -0.9464
-0.9658 -0.9741 -1.0055 -1.0147 -1.0314 -1.0397
-1.0461 -1.0646 -1.0692 -1.0757 -1.0812 -1.1006
-1.1006 -1.1061 -1.1117 -1.1154 -1.1338 -1.1209
-1.1338 -1.1431 -1.1477 -1.1680 -1.1578 -1.1791
-1.1929 -1.1865 -1.1985 -1.2068 -1.2252 -1.2354
-1.2372 -1.2428 -1.2603 -1.2742 -1.2668 -1.2732
-1.2815 -1.2834 -1.2982 -1.3046 -1.3019 -1.3194
-1.3342 -1.3305 -1.3480 -1.3656 -1.3619 -1.3785
-1.3886 -1.3951 -1.4136 -1.4117 -1.4173 -1.4163
-1.4154 -1.4348 -1.4459 -1.4366 -1.4394 -1.4496
-1.4523 -1.4625 -1.4542 -1.4606 -1.4680 -1.4616
-1.4708 -1.4634 -1.4680 -1.4551 -1.4413 -1.4496
-1.4394 -1.4367 -1.4237 -1.4191 -1.4071 -1.3988
-1.4016 -1.3887 -1.3859 -1.3656 -1.3564 -1.3490
-1.3314 -1.3185 -1.3010 -1.2862 -1.2742 -1.2696
-1.2474 -1.2308 -1.2271 -1.2124 -1.1939 -1.1884
-1.1635 -1.1339 -1.1348 -1.1025 -1.0933 -1.0841
-1.0508 -1.0508 -1.0232 -1.0010 -0.9881 -0.9724
-0.9567 -0.9373 -0.9327 -0.9161 -0.9069 -0.8847
-0.8626 -0.8349 -0.8155 -0.8016 -0.7675 -0.7610
-0.7287 -0.7056 -0.7103 -0.6844 -0.6743 -0.6567
-0.6355 -0.6281 -0.6060 -0.5884 -0.5700 -0.5607
-0.5533 -0.5395 -0.5173 -0.4906 -0.4730 -0.4444
-0.4343 -0.4140 -0.3826 -0.3826 -0.3567 -0.3290
-0.3198 -0.3124 -0.2986 -0.2857 -0.2755 -0.2552
-0.2395 -0.2247 -0.2257 -0.2044 -0.1860 -0.1795
-0.1463 -0.1481 -0.1343 -0.1029 -0.0964 -0.0724
-0.0521 -0.0346 -0.0226 -0.0069 0.0069 0.0134
0.0291 0.0411 0.0642 0.0826 0.0983 0.1112
0.1288 0.1352 0.1518 0.1841 0.1888 0.2118
0.2377 0.2469 0.2525 0.2700 0.2838 0.2875
0.3032 0.3180 0.3364 0.3558 0.3641 0.3678
0.3752 0.3872 0.3992 0.4001 0.4195 0.4195
0.4094 0.4232 0.4112 0.4130 0.4130 0.4149
0.4306 0.4278 0.4269 0.4140 0.4121 0.4112
0.4186 0.4260 0.4047 0.4158 0.4103 0.4038
0.4047 0.3936 0.4112 0.4056 0.3955 0.3973
0.3964 0.3835 0.3798 0.3909 0.3789 0.3816
0.3798 0.3835 0.3992 0.3936 0.4029 0.4130
0.4121 0.4084 0.4084 0.4222 0.4195 0.4139
0.4102 0.4075 0.4130 0.4075 0.4112 0.4084
0.4047 0.4001 0.3927 0.3927 0.3807 0.3751
0.3687 0.3604 0.3585 0.3567 0.3502 0.3382
0.3281 0.3271 0.3364 0.3281 0.3041 0.3087
0.3031 0.2967 0.2911 0.2717 0.2773 0.2662
0.2570 0.2450 0.2228 0.2293 0.2080 0.1794
0.1794 0.1730 0.1610 0.1480 0.1379 0.1194
0.1074 0.0954 0.0668 0.0576 0.0530 0.0410
0.0225 0.0040 -0.0218 -0.0532 -0.0597 -0.0772
-0.1132 -0.1307 -0.1409 -0.1557 -0.1723 -0.2037
-0.2267 -0.2397 -0.2840 -0.3098 -0.3154 -0.3578
-0.3772 -0.3883 -0.4271 -0.4520 -0.4834 -0.5083
-0.5341 -0.5609 -0.5701 -0.5969 -0.6255 -0.6477
-0.6828 -0.7252 -0.7501 -0.7797 -0.8175 -0.8498
-0.8932 -0.9274 -0.9634 -0.9938 -1.0206 -1.0585
-1.0908 -1.1240 -1.1646 -1.1988 -1.2228 -1.2689
-1.3068 -1.3252 -1.3649 -1.3954 -1.4231 -1.4702
-1.5089 -1.5422 -1.5800 -1.6142 -1.6437 -1.6806
-1.7092 -1.7388 -1.7683 -1.7877 -1.8274 -1.8486
-1.8514 -1.8708 -1.8985 -1.9151 -1.9262 -1.9400
-1.9520 -1.9650 -1.9576 -1.9622 -1.9668 -1.9640
-1.9770 -1.9760 -1.9650 -1.9594 -1.9668 -1.9539
-1.9437 -1.9447 -1.9428 -1.9428 -1.9207 -1.9040
-1.8939 -1.8800 -1.8690 -1.8487 -1.8339 -1.8136
-1.8025 -1.7841 -1.7628 -1.7471 -1.7102 -1.6899
-1.6751 -1.6474 -1.6308 -1.6050 -1.5635 -1.5348
-1.5090 -1.4887 -1.4721 -1.4379 -1.4084 -1.3742
-1.3419 -1.3059 -1.2745 -1.2533 -1.2035 -1.1730
-1.1453 -1.1047 -1.0798 -1.0281 -0.9976 -0.9570
-0.9053 -0.8841 -0.8370 -0.8029 -0.7678 -0.7189
-0.6875 -0.6386 -0.6063 -0.5795 -0.5287 -0.4909
-0.4484 -0.3930 -0.3533 -0.3293 -0.2850 -0.2426
-0.2186 -0.1724 -0.1337 -0.0995 -0.0570 -0.0183
0.0260 0.0639 0.0971 0.1303 0.1765 0.2300
0.2697 0.3113 0.3500 0.3869 0.4165 0.4589
0.4968 0.5328 0.5845 0.6205 0.6556 0.6860
0.7183 0.7515 0.7774 0.8143 0.8577 0.8909
0.9177 0.9528 0.9749 1.0063 1.0285 1.0395
1.0709 1.1042 1.1365 1.1568 1.1891 1.2260
1.2435 1.2601 1.2943 1.3441 1.3635 1.3681
1.4060 1.4291 1.4420 1.4678 1.4789 1.4974
1.5186 1.5260 1.5435 1.5500 1.5610 1.5786
1.5823 1.6146 1.6081 1.5924 1.6118 1.6155
1.6127 1.6044 1.6109 1.6090 1.5933 1.5767
1.5693 1.5786 1.5740 1.5573 1.5453 1.5260
1.5010 1.4909 1.4835 1.4789 1.4493 1.4216
1.4179 1.3930 1.3764 1.3690 1.3487 1.3312
1.3062 1.2804 1.2527 1.2389 1.2213 1.1973
1.1844 1.1502 1.1345 1.1225 1.1078 1.0939
1.0635 1.0478 1.0219 1.0053 0.9859 0.9582
0.9490 0.9305 0.9148 0.8890 0.8798 0.8650
0.8308 0.8281 0.8004 0.7801 0.7542 0.7173
0.7062 0.6748 0.6767 0.6647 0.6324 0.6278
0.5964 0.5742 0.5613 0.5484 0.5373 0.5096
0.4847 0.4644 0.4487 0.4385 0.4182 0.3841
0.3730 0.3656 0.3480 0.3425 0.3167 0.2927
0.2973 0.2927 0.2853 0.2677 0.2474 0.2483
0.2483 0.2456 0.2493 0.2456 0.2225 0.2197
0.2243 0.2243 0.2382 0.2234 0.2225 0.2299
0.2289 0.2391 0.2400 0.2548 0.2576 0.2686
0.2880 0.2760 0.2852 0.3120 0.3102 0.3332
0.3379 0.3277 0.3462 0.3406 0.3545 0.3655
0.3840 0.4089 0.4172 0.4366 0.4505 0.4662
0.4772 0.4846 0.4911 0.5068 0.5086 0.5197
0.5363 0.5345 0.5381 0.5363 0.5548 0.5649
0.5511 0.5520 0.5677 0.5806 0.5834 0.6055
0.6129 0.6037 0.6203 0.6258 0.6277 0.6369
0.6406 0.6544 0.6646 0.6572 0.6563 0.6664
0.6590 0.6572 0.6554 0.6452 0.6406 0.6350
0.6323 0.6360 0.6397 0.6193 0.6193 0.6157
0.6203 0.6295 0.6000 0.6055 0.6073 0.5990
0.5963 0.5898 0.5833 0.5806 0.5824 0.5621
0.5584 0.5510 0.5418 0.5362 0.5261 0.5206
0.5150 0.5104 0.4947 0.4855 0.4873 0.4910
0.4864 0.4679 0.4615 0.4587 0.4458 0.4412
0.4412 0.4208 0.4125 0.4208 0.3959 0.3839
0.3802 0.3645 0.3562 0.3424 0.3359 0.3165
0.3045 0.2999 0.2824 0.2713 0.2556 0.2325
0.2224 0.2011 0.1781 0.1688 0.1568 0.1384
0.1162 0.1061 0.0894 0.0599 0.0414 0.0322
0.0202 0.0165 -0.0056 -0.0343 -0.0444 -0.0703
-0.0887 -0.0933 -0.0933 -0.1035 -0.1220 -0.1293
-0.1487 -0.1487 -0.1450 -0.1635 -0.1810 -0.1884
-0.2004 -0.1977 -0.1967 -0.2143 -0.2087 -0.2170
-0.2309 -0.2170 -0.2254 -0.2281 -0.2143 -0.2300
-0.2337 -0.2309 -0.2318 -0.2300 -0.2328 -0.2161
-0.2152 -0.2097 -0.2041 -0.1977 -0.1857 -0.1875
-0.1626 -0.1515 -0.1423 -0.1358 -0.1238 -0.0998
-0.1026 -0.0805 -0.0602 -0.0500 -0.0242 -0.0177
-0.0085 0.0137 0.0165 0.0257 0.0497 0.0626
0.0765 0.0838 0.1041 0.1300 0.1540 0.1761
0.1826 0.2075 0.2278 0.2407 0.2537 0.2675
0.3054 0.3201 0.3331 0.3598 0.3866 0.4152
0.4327 0.4503 0.4780 0.5020 0.5112 0.5297
0.5435 0.5749 0.6007 0.6063 0.6312 0.6395
0.6543 0.6930 0.7143 0.7373 0.7595 0.7715
0.8047 0.8213 0.8389 0.8721 0.8758 0.8989
0.9118 0.9219 0.9533 0.9672 0.9875 0.9949
0.9958 1.0207 1.0364 1.0401 1.0438 1.0465
1.0715 1.0936 1.0955 1.1112 1.1167 1.1296
1.1462 1.1462 1.1527 1.1693 1.1988 1.2007
1.1961 1.2136 1.2247 1.2321 1.2395 1.2358
1.2311 1.2348 1.2450 1.2514 1.2330 1.2201
1.2173 1.2330 1.2551 1.2284 1.2210 1.2339
1.2330 1.2284 1.2200 1.2173 1.2099 1.2025
1.1905 1.1822 1.1748 1.1600 1.1499 1.1231
1.1148 1.1074 1.0871 1.0862 1.0631 1.0474
1.0419 1.0234 1.0151 0.9893 0.9643 0.9579
0.9394 0.9191 0.9025 0.8849 0.8729 0.8573
0.8342 0.8213 0.8111 0.7945 0.7705 0.7474
0.7372 0.7114 0.6911 0.6800 0.6477 0.6237
0.6034 0.5859 0.5619 0.5499 0.5517 0.5240
0.4797 0.4566 0.4548 0.4409 0.4151 0.3763
0.3588 0.3449 0.3025 0.2858 0.2683 0.2388
0.2175 0.1935 0.1788 0.1511 0.1234 0.1003
0.0726 0.0523 0.0348 0.0098 -0.0243 -0.0289
-0.0511 -0.0945 -0.1111 -0.1462 -0.1665 -0.1840
-0.2016 -0.2265 -0.2671 -0.2763 -0.2957 -0.3169
-0.3511 -0.3659 -0.3723 -0.4028 -0.4203 -0.4406
-0.4462 -0.4674 -0.4886 -0.4905 -0.5043 -0.5210
-0.5440 -0.5533 -0.5607 -0.5856 -0.6123 -0.6345
-0.6640 -0.6760 -0.6844 -0.7056 -0.7194 -0.7480
-0.7665 -0.7822 -0.8164 -0.8293 -0.8459 -0.8662
-0.8754 -0.8967 -0.9114 -0.9188 -0.9382 -0.9419
-0.9594 -1.0001 -1.0010 -1.0056 -1.0241 -1.0398
-1.0591 -1.0518 -1.0638 -1.0813 -1.0730 -1.0868
-1.0942 -1.1062 -1.1219 -1.1044 -1.1081 -1.1228
-1.1145 -1.1339 -1.1524 -1.1478 -1.1644 -1.1589
-1.1589 -1.1727 -1.1616 -1.1829 -1.1930 -1.1847
-1.1930 -1.2032 -1.1949 -1.1949 -1.2059 -1.1866
-1.1884 -1.2032 -1.2013 -1.1967 -1.2013 -1.2023
-1.1903 -1.1930 -1.1949 -1.2060 -1.2078 -1.1967
-1.2013 -1.1903 -1.1727 -1.1792 -1.1718 -1.1589
-1.1607 -1.1460 -1.1330 -1.1312 -1.1303 -1.1127
-1.0961 -1.0980 -1.0924 -1.0915 -1.0666 -1.0583
-1.0601 -1.0315 -1.0371 -1.0324 -1.0223 -1.0084
-0.9872 -0.9881 -0.9752 -0.9706 -0.9577 -0.9254
-0.9226 -0.9208 -0.8940 -0.8903 -0.8875 -0.8608
-0.8552 -0.8368 -0.8155 -0.8100 -0.7906 -0.7878
-0.7666 -0.7435 -0.7555 -0.7269 -0.7057 -0.7057
-0.6780 -0.6679 -0.6614 -0.6448 -0.6328 -0.6106
-0.5968 -0.5885 -0.5737 -0.5645 -0.5580 -0.5552
-0.5331 -0.5220 -0.5036 -0.4860 -0.5008 -0.4777
-0.4685 -0.4639 -0.4491 -0.4546 -0.4436 -0.4325
-0.4196 -0.4288 -0.4426 -0.4371 -0.4371 -0.4260
-0.4223 -0.4288 -0.4233 -0.4233 -0.4242 -0.4168
-0.4260 -0.4362 -0.4270 -0.4362 -0.4510 -0.4454
-0.4584 -0.4870 -0.4851 -0.4777 -0.4944 -0.4944
-0.4971 -0.5036 -0.5045 -0.5202 -0.5239 -0.5239
-0.5424 -0.5387 -0.5433 -0.5645 -0.5488 -0.5553
-0.5867 -0.5839 -0.5839 -0.6125 -0.6291 -0.6245
-0.6347 -0.6504 -0.6652 -0.6707 -0.6799 -0.6947
-0.6873 -0.6938 -0.7122 -0.7159 -0.7233 -0.7464
-0.7602 -0.7602 -0.7759 -0.7926 -0.8101 -0.8184
-0.8221 -0.8396 -0.8498 -0.8646 -0.8756 -0.8803
-0.8959 -0.9033 -0.9209 -0.9439 -0.9476 -0.9504
-0.9707 -0.9883 -0.9836 -0.9938 -1.0169 -1.0160
-1.0012 -1.0141 -1.0280 -1.0270 -1.0353 -1.0289
-1.0243 -1.0280 -1.0437 -1.0566 -1.0557 -1.0538
-1.0510 -1.0667 -1.0769 -1.0750 -1.0640 -1.0630
-1.0704 -1.0575 -1.0446 -1.0427 -1.0354 -1.0252
-1.0215 -1.0031 -0.9957 -0.9957 -0.9855 -0.9763
-0.9615 -0.9532 -0.9357 -0.9172 -0.9255 -0.9265
-0.9089 -0.8831 -0.8766 -0.8720 -0.8508 -0.8452
-0.8286 -0.8148 -0.8028 -0.7714 -0.7631 -0.7603
-0.7465 -0.7299 -0.7123 -0.7012 -0.6846 -0.6745
-0.6717 -0.6403 -0.6274 -0.6403 -0.6209 -0.6099
-0.6136 -0.6034 -0.5849 -0.5609 -0.5545 -0.5360
-0.5176 -0.5093 -0.4871 -0.4640 -0.4594 -0.4520
-0.4225 -0.4105 -0.3930 -0.3754 -0.3634 -0.3403
-0.3293 -0.3099 -0.2831 -0.2619 -0.2296 -0.2240
-0.2213 -0.2000 -0.1853 -0.1465 -0.1484 -0.1419
-0.1004 -0.0930 -0.0782 -0.0690 -0.0524 -0.0330
-0.0238 -0.0081 0.0169 0.0418 0.0538 0.0787
0.0861 0.0972 0.1322 0.1562 0.1664 0.1719
0.1867 0.2088 0.2255 0.2375 0.2504 0.2578
0.2735 0.2975 0.3039 0.3178 0.3344 0.3381
0.3556 0.3768 0.3888 0.3944 0.4138 0.4313
0.4368 0.4627 0.4756 0.4756 0.4876 0.4867
0.4894 0.5171 0.5402 0.5457 0.5494 0.5513
0.5725 0.5808 0.5817 0.5937 0.5993 0.6076
0.6085 0.6408 0.6390 0.6187 0.6574 0.6648
0.6556 0.6556 0.6648 0.6796 0.6768 0.6740
0.6768 0.6694 0.6731 0.6897 0.6713 0.6648
0.6648 0.6500 0.6565 0.6473 0.6408 0.6269
0.6066 0.6076 0.6048 0.6057 0.5928 0.5725
0.5605 0.5512 0.5402 0.5374 0.5383 0.5272
0.5189 0.4940 0.4802 0.4857 0.4737 0.4709
0.4552 0.4322 0.4211 0.4091 0.4091 0.3971
0.3795 0.3574 0.3435 0.3454 0.3352 0.3149
0.2964 0.2974 0.2854 0.2595 0.2494 0.2503
0.2411 0.2189 0.2041 0.1875 0.1811 0.1681
0.1451 0.1358 0.1229 0.1063 0.0795 0.0758
0.0703 0.0527 0.0444 0.0232 0.0214 0.0158
0.0093 0.0029 -0.0202 -0.0340 -0.0368 -0.0340
-0.0442 -0.0608 -0.0654 -0.0756 -0.0922 -0.1060
-0.1051 -0.1107 -0.1347 -0.1337 -0.1310 -0.1457
-0.1651 -0.1642 -0.1605 -0.1707 -0.1753 -0.1845
-0.1845 -0.1956 -0.2113 -0.2039 -0.2178 -0.2251
-0.2168 -0.2390 -0.2427 -0.2362 -0.2436 -0.2491
-0.2593 -0.2491 -0.2436 -0.2528 -0.2510 -0.2455
-0.2418 -0.2565 -0.2602 -0.2528 -0.2529 -0.2436
-0.2519 -0.2473 -0.2362 -0.2344 -0.2372 -0.2325
-0.2178 -0.2279 -0.2150 -0.2067 -0.2132 -0.2030
-0.1956 -0.1919 -0.1772 -0.1726 -0.1818 -0.1818
-0.1670 -0.1403 -0.1403 -0.1476 -0.1366 -0.1403
-0.1273 -0.1061 -0.1052 -0.0987 -0.0941 -0.0830
-0.0664 -0.0609 -0.0517 -0.0443 -0.0230 -0.0175
-0.0184 0.0130 0.0259 0.0388 0.0674 0.0674
0.0859 0.1053 0.1062 0.1329 0.1413 0.1653
0.1939 0.1994 0.2243 0.2336 0.2446 0.2696
