Archivo de aceleración parte de la Red Nacional de Acelerógrafos (RENAC) Ecuador
          
Evento: 201604162358
Fecha del evento UTM (aammdd):                  2016    4   16
Hora del registro UTM (hhmmss): 23   59 25.00
Estación:                                      AMIL
Componente:                                        Z
Frecuencia de muestreo (Hz):            1.000000e+02
Unidades: cm/s^2
_____________________________________________
-0.3695 0.1040 0.5415 0.6379 0.3975 0.0070
-0.2564 -0.3332 -0.2427 -0.0732 0.0819 0.2302
0.3039 0.3378 0.3786 0.4585 0.6332 0.9062
1.0533 0.9242 0.4445 -0.1317 -0.6202 -0.8673
-0.9246 -0.9690 -0.8966 -0.7190 -0.3960 -0.0493
0.2125 0.3555 0.4115 0.3605 0.2604 0.3036
0.5860 0.9746 1.0956 0.8176 0.3428 -0.0312
-0.1550 -0.0328 0.2452 0.4952 0.5514 0.2955
-0.1080 -0.3926 -0.3916 -0.2539 -0.1845 -0.1382
-0.0309 0.1674 0.2915 0.2878 0.1886 0.1096
0.1370 0.3095 0.5023 0.4911 0.1733 -0.3251
-0.6954 -0.7806 -0.6450 -0.5558 -0.6186 -0.5462
-0.1130 0.5011 0.9563 1.0343 0.7548 0.2259
-0.3577 -0.6671 -0.4065 0.2909 0.9609 1.1223
0.7262 0.0857 -0.5368 -0.9625 -1.1161 -1.0035
-0.7411 -0.3431 0.0922 0.4230 0.4917 0.3024
0.0011 -0.2268 -0.1817 0.0241 0.2334 0.2517
-0.0098 -0.4274 -0.7725 -0.7961 -0.4429 0.0468
0.3416 0.2974 -0.0089 -0.3506 -0.5965 -0.7402
-0.7212 -0.4165 0.1401 0.7340 1.1288 1.1332
0.6373 -0.2079 -0.9715 -1.2784 -1.0698 -0.5157
0.1112 0.5645 0.6827 0.4535 0.1037 -0.1712
-0.2871 -0.3067 -0.2930 -0.2728 -0.2896 -0.3443
-0.3593 -0.1914 0.0854 0.2601 0.1957 0.0717
0.0561 0.1286 0.3114 0.5875 0.8910 1.0791
1.1186 1.1049 1.1099 0.9905 0.6242 0.0157
-0.5869 -0.9003 -0.8648 -0.6481 -0.5990 -0.8683
-1.3396 -1.6559 -1.6652 -1.3922 -1.0228 -0.5894
0.0036 0.6705 1.1892 1.4062 1.4376 1.3543
1.1674 0.8543 0.5760 0.4448 0.4274 0.3537
0.1849 0.1286 0.2433 0.3232 0.1485 -0.1413
-0.3782 -0.5135 -0.5900 -0.5328 -0.3285 -0.1491
-0.1314 -0.2430 -0.3478 -0.4557 -0.4759 -0.3257
0.0369 0.4625 0.7505 0.8412 0.7952 0.7330
0.5881 0.3500 0.0263 -0.3549 -0.7240 -0.9158
-0.7103 -0.2026 0.3080 0.6096 0.5997 0.3288
0.0039 -0.1273 0.1214 0.6954 1.2548 1.3658
0.8154 -0.1410 -0.9976 -1.2843 -0.8683 0.0338
0.9386 1.3841 1.2237 0.6472 0.0425 -0.3036
-0.3947 -0.3956 -0.3409 -0.2346 -0.0213 0.2781
0.5869 0.7234 0.6441 0.4283 0.1827 0.0344
0.0555 0.1839 0.3341 0.3904 0.1877 -0.2252
-0.7566 -1.0240 -0.7949 -0.1802 0.4153 0.7281
0.7788 0.7044 0.5465 0.2813 0.0621 -0.0116
0.1171 0.2520 0.2402 0.0487 -0.1746 -0.3353
-0.5713 -0.8269 -0.9646 -0.8981 -0.6459 -0.3534
-0.2078 -0.2706 -0.3935 -0.4193 -0.2498 0.1065
0.6929 1.4065 1.9948 2.1686 1.7417 0.8652
-0.0356 -0.5940 -0.7529 -0.6438 -0.4603 -0.2075
0.0760 0.2791 0.2144 -0.0993 -0.3860 -0.4647
-0.4227 -0.3997 -0.4137 -0.4354 -0.5004 -0.6559
-0.8213 -0.8294 -0.5166 0.0605 0.6715 0.9818
0.8748 0.5701 0.4681 0.6556 0.7819 0.4013
-0.6357 -1.8480 -2.5694 -2.5041 -1.8132 -0.7818
0.2928 1.1233 1.4572 1.1976 0.5381 -0.0151
0.0185 0.5863 1.1292 1.0956 0.5791 -0.0847
-0.5673 -0.6590 -0.3359 0.1740 0.4759 0.5023
0.3758 0.3413 0.5123 0.7763 0.7890 0.4302
-0.0853 -0.4494 -0.4270 -0.0514 0.4818 0.8397
0.9047 0.7514 0.5819 0.5608 0.7405 0.9031
0.7072 0.0950 -0.6758 -1.1894 -1.3222 -1.2069
-0.9348 -0.4780 0.0698 0.4955 0.6510 0.6351
0.5975 0.4206 -0.1083 -0.7513 -1.0539 -0.8415
-0.4740 -0.4292 -0.6512 -0.9522 -1.2603 -1.5318
-1.4581 -0.7588 0.4563 1.5486 2.0206 1.9009
1.4566 0.8509 0.1420 -0.3810 -0.4479 -0.0993
0.0773 -0.2678 -0.7946 -0.9954 -0.6689 0.0394
0.8689 1.5452 1.8589 1.7302 1.1995 0.3833
-0.5458 -1.4590 -2.0666 -1.9183 -1.0663 0.0789
0.8898 1.0857 0.8074 0.2807 -0.1686 -0.4217
-0.2625 0.1681 0.4367 0.1541 -0.6599 -1.6185
-2.2304 -2.1036 -1.3545 -0.4205 0.2443 0.4840
0.3512 0.1299 0.0798 0.2337 0.4697 0.6572
0.7909 1.0375 1.4796 1.7940 1.5337 0.5757
-0.6568 -1.5436 -1.5747 -0.7579 0.5425 1.8067
2.4690 2.2893 1.4967 0.7356 0.3400 0.1286
-0.0893 -0.2134 -0.2243 -0.1074 0.0459 0.2343
0.3945 0.4249 0.2931 -0.0272 -0.3496 -0.5141
-0.4926 -0.5066 -0.4668 -0.2799 0.0201 0.1090
-0.0984 -0.2862 -0.0523 0.6037 1.2965 1.7340
1.6876 1.2296 0.3332 -0.7236 -1.6446 -2.0852
-1.8900 -1.2019 -0.4192 -0.0694 -0.2321 -0.6198
-0.8664 -1.0072 -1.0405 -0.9332 -0.6490 -0.2818
0.0179 0.2421 0.4790 0.8714 1.3046 1.4787
1.1183 0.4228 -0.1562 -0.1801 0.4116 1.2222
1.6435 1.2564 0.2912 -0.5912 -0.9733 -0.9031
-0.5470 -0.2439 -0.1693 -0.2974 -0.4401 -0.4945
-0.3826 -0.0890 0.3149 0.6040 0.4526 -0.0464
-0.5243 -0.6011 -0.3117 0.1694 0.5907 0.7990
0.7579 0.4731 0.0291 -0.3627 -0.4765 -0.5489
-0.8947 -1.4798 -1.8573 -1.7566 -1.3153 -0.8300
-0.3860 0.0838 0.4442 0.5011 0.3385 0.3301
0.4448 0.4374 0.1868 -0.0561 -0.0551 0.1283
0.4119 0.4853 0.2029 -0.3648 -0.9385 -1.2628
-1.0964 -0.2899 0.8441 1.6587 1.7663 1.3161
0.6009 0.0005 -0.2448 -0.1487 -0.0856 -0.2460
-0.5094 -0.6593 -0.6347 -0.5082 -0.3769 -0.4631
-0.7379 -0.8788 -0.5464 0.0960 0.4881 0.3155
-0.1879 -0.7625 -1.0588 -0.8095 -0.0063 0.9927
1.6858 1.8515 1.5350 1.0425 0.4330 -0.3589
-1.0834 -1.1611 -0.4979 0.4057 0.9088 0.7974
0.3677 -0.0788 -0.3235 -0.3418 -0.1316 0.2384
0.4585 0.2284 -0.2376 -0.4696 -0.3284 0.0910
0.5944 1.0303 1.0294 0.3715 -0.6468 -1.3670
-1.4027 -0.9733 -0.3869 0.1830 0.7586 1.1609
1.3024 1.2085 0.9688 0.6942 0.5251 0.5938
0.8394 0.9853 0.6765 -0.1456 -1.1288 -1.6151
-1.3421 -0.5719 0.1504 0.4480 0.3454 0.1426
0.0696 0.1793 0.3230 0.1927 -0.3172 -1.0196
-1.5585 -1.8150 -1.9179 -1.8377 -1.3470 -0.4553
0.5238 1.1121 1.0956 0.6753 0.0845 -0.4758
-0.9037 -0.9758 -0.5461 0.1249 0.7396 1.0959
1.2104 1.1134 0.7660 0.2763 -0.1590 -0.3692
-0.4282 -0.5797 -0.9040 -1.2015 -1.0943 -0.3720
0.8127 2.1743 3.3138 3.8147 3.3667 2.0769
0.5164 -0.6910 -1.3135 -1.5380 -1.5383 -1.2283
-0.5825 0.1787 0.8982 1.4106 1.5878 1.2026
0.3037 -0.6086 -1.0383 -0.7982 -0.0850 0.5509
0.6448 0.3712 0.2611 0.6532 1.3689 1.9361
1.7539 0.7008 -0.6779 -1.4832 -1.2115 -0.3235
0.2754 0.1401 -0.4655 -1.0632 -1.3847 -1.4360
-1.0554 -0.3542 0.1706 0.1495 -0.2846 -0.7311
-0.9895 -0.9291 -0.5169 0.3177 1.4072 2.1208
2.1621 1.8730 1.7893 1.9874 2.0574 1.7160
1.0335 0.2695 -0.4049 -0.9767 -1.3172 -1.1527
-0.4404 0.3432 0.6414 0.4172 -0.0004 -0.2149
-0.3079 -0.5846 -1.0563 -1.3001 -0.9596 -0.0442
1.0894 1.8413 1.7614 0.8590 -0.4233 -1.5177
-1.9829 -1.8287 -1.1257 0.0490 1.4411 2.3260
2.2539 1.3798 0.2530 -0.7395 -1.4089 -1.4677
-1.0616 -0.4183 0.2623 0.8879 1.2719 1.3475
1.0674 0.5484 0.0276 -0.3685 -0.5240 -0.6257
-0.9055 -1.4282 -2.0302 -2.4135 -2.2192 -1.5006
-0.5209 0.5027 1.4224 1.9796 1.8099 0.8861
-0.3803 -1.1337 -0.9189 0.1066 1.0935 1.3618
0.9240 0.2070 -0.4114 -0.7858 -0.8172 -0.7336
-0.5996 -0.5458 -0.5908 -0.9161 -1.5995 -2.4356
-3.0015 -2.9925 -2.5441 -1.9067 -1.2472 -0.4083
0.5329 1.3142 1.6190 1.4865 1.0101 0.3615
-0.1288 -0.0909 0.5559 1.4793 2.1410 2.0667
1.3848 0.3802 -0.6804 -1.6993 -2.3883 -2.2024
-0.8079 1.3046 3.0272 3.5430 2.8789 1.7188
0.6143 -0.0896 -0.3194 -0.2569 -0.1624 -0.1621
-0.2137 -0.0004 0.4716 0.5646 -0.1322 -1.3896
-2.4655 -2.8690 -2.5351 -1.6405 -0.4155 0.6134
0.8746 0.4732 0.1327 0.2879 0.7120 1.2564
1.7766 2.2396 2.4246 2.1395 1.2524 -0.0075
-1.1378 -1.8638 -2.1172 -1.9714 -1.3965 -0.7311
-0.1829 0.2984 0.8115 1.1386 1.2940 1.3111
1.2732 1.3180 1.4032 1.4430 1.1065 0.6087
0.2434 0.2785 0.6314 1.0232 1.1731 0.9579
0.5770 0.2101 -0.0128 0.1001 0.5204 0.4436
-0.4503 -1.5637 -1.9558 -1.2382 0.2098 1.6423
2.1236 1.3407 -0.2177 -1.5706 -2.0233 -1.4540
-0.4220 0.3426 0.4953 0.0926 -0.5532 -1.2649
-1.8056 -1.9879 -1.7680 -1.1455 -0.0890 1.0692
1.9756 2.5782 2.9575 3.0085 2.5070 1.4756
0.2039 -0.8309 -1.3514 -1.5174 -1.6051 -1.4813
-0.9795 -0.3495 -0.0986 -0.1101 0.0771 0.6308
1.3195 1.6715 1.4741 0.8765 0.1044 -0.8657
-1.8576 -2.1688 -1.3364 0.2549 1.9470 3.2644
3.7678 3.1770 1.7663 0.1961 -1.1154 -1.8234
-1.9129 -1.9120 -1.9319 -1.7385 -1.2693 -0.8020
-0.3862 0.2661 1.3080 2.4843 3.2877 3.3297
2.6214 1.4955 0.3793 -0.3738 -0.5532 -0.2678
-0.3091 -1.1278 -2.3392 -3.1647 -3.2841 -2.7506
-1.7578 -0.6048 0.3379 0.7170 0.5783 0.2450
0.1554 0.2459 0.3311 0.4129 0.5447 0.7555
1.0111 1.1669 1.1504 0.9999 0.7592 0.4881
0.0954 -0.4997 -1.3066 -2.0245 -2.2005 -1.5864
-0.6092 0.0814 0.4237 0.6321 0.8382 1.0904
1.4735 1.9100 2.1413 1.9010 1.2679 0.5599
-0.1658 -1.2379 -2.6467 -3.6202 -3.4613 -2.3324
-1.1175 -0.3284 0.3454 1.2468 2.1420 2.2104
1.0276 -0.7174 -2.0668 -2.7316 -3.0229 -3.1591
-3.2512 -3.1601 -2.6924 -1.5329 0.2443 2.1221
3.4448 3.6823 2.9019 1.7213 0.7048 0.1057
0.0531 0.3609 0.8908 1.3105 1.7138 1.9169
1.9172 1.2664 0.2157 -0.7230 -1.4210 -1.1340
-0.4910 0.1281 0.5960 0.9045 1.0391 1.2567
1.6995 2.1569 2.3689 1.8438 0.6644 -0.8421
-2.1551 -2.7652 -2.4536 -1.1719 0.4471 1.5801
1.9032 1.4672 0.7011 -0.1297 -0.6788 -0.6278
0.0656 1.0276 1.6852 1.7623 1.5596 1.3547
1.0913 0.5798 -0.4556 -1.6231 -2.0963 -1.4219
-0.2329 0.4769 0.2658 -0.5143 -1.0417 -0.8038
0.3442 1.9078 3.2078 3.6282 3.0598 1.8590
0.7453 0.3774 0.7935 1.6697 2.2623 2.3058
1.9483 1.5723 1.2225 0.7083 0.0951 -0.4708
-0.9381 -1.5168 -2.0637 -2.3600 -2.6339 -3.3180
-4.0596 -4.2079 -3.5664 -2.2751 -0.6231 0.8385
1.6268 1.6840 1.0860 0.4225 0.2835 0.8482
1.7023 2.3966 2.7337 2.6625 2.0568 0.9306
-0.2976 -1.1872 -1.3803 -0.9701 -0.1620 0.5674
0.8864 0.6305 0.0367 -0.6070 -1.1956 -1.4819
-1.3653 -0.9558 -0.4801 0.0945 0.6442 0.9346
0.7468 0.3302 0.1763 0.5006 1.0338 1.3777
1.5263 1.7701 2.0387 1.7054 0.5609 -0.9030
-1.8153 -1.7835 -1.1094 -0.3644 0.0065 -0.3128
-1.2789 -2.1862 -2.5848 -2.4676 -2.2139 -2.0774
-1.8715 -1.4729 -1.0320 -0.6427 -0.1197 0.6380
1.4225 1.8108 1.6610 0.7988 -0.6738 -2.3317
-3.3743 -3.2101 -1.9154 -0.0460 1.6868 2.8814
3.3851 3.1475 1.9489 0.2161 -1.3893 -2.2776
-2.2863 -1.4975 -0.2099 0.9673 1.4206 1.0957
0.8087 1.2564 2.2095 2.5589 1.7885 0.2503
-1.2108 -2.0202 -1.9754 -1.2677 -0.5952 -0.5504
-1.1020 -1.5566 -1.6113 -1.6775 -2.3093 -3.3422
-4.0030 -3.7387 -2.5773 -0.9254 0.9922 2.8251
3.7958 3.2996 1.5845 -0.3253 -1.6302 -2.4754
-3.3755 -4.2903 -5.0029 -5.4771 -5.7719 -5.5921
-4.4681 -2.3914 0.0503 1.9203 2.9190 3.2903
3.2306 2.5751 1.4228 0.4300 0.2074 0.5087
0.5879 0.3790 0.3159 0.9035 2.0667 3.1127
3.0919 1.5450 -0.7770 -2.3130 -1.9374 0.1362
2.4582 3.5054 2.7651 0.9393 -0.5491 -0.6458
0.3914 1.4284 1.7368 1.0969 -0.1667 -1.3398
-1.5665 -0.6402 0.5550 1.0239 0.6013 0.1132
0.2621 0.7820 0.9608 0.5587 -0.0352 -0.4450
-0.4297 0.2248 1.7390 3.7803 5.1077 4.8536
3.1326 1.0509 -0.4490 -0.9670 -0.4848 0.3408
0.7092 0.0065 -1.4067 -2.5804 -2.8988 -2.6445
-2.5136 -2.5528 -1.9238 -0.0840 2.4110 4.6176
5.8213 5.7843 4.5937 2.6836 0.5049 -1.0961
-1.5618 -1.1620 -0.6847 -0.6225 -0.8526 -1.3930
-1.9984 -2.3090 -1.9878 -1.1707 -0.0625 1.0600
1.8472 2.0789 1.5164 0.2005 -1.4284 -2.4937
-2.5798 -1.9374 -1.2926 -1.2643 -1.7241 -1.6380
-0.3893 1.2350 2.0863 1.6414 0.4048 -0.8199
-1.2643 -0.8386 -0.3193 -0.6070 -1.8211 -2.9896
-3.1236 -2.0997 -0.7817 -0.0044 -0.0255 -0.5631
-1.1446 -1.1561 -0.3355 1.4374 3.7436 5.5364
5.8561 4.5228 2.1551 -0.6511 -3.3217 -5.3956
-6.3185 -5.7355 -4.0098 -2.2055 -0.8905 -0.1598
0.1800 0.1800 0.4135 1.4496 2.8525 3.6460
3.4970 2.5300 1.3022 -0.0224 -0.9331 -0.8551
-0.3395 0.8168 1.5525 1.5777 1.6439 2.2070
2.9719 3.2558 2.8108 1.6134 0.1014 -1.3093
-1.9782 -1.5142 -0.3249 0.9281 1.3796 0.9008
0.3131 0.1722 0.6585 1.6144 2.7651 3.5838
3.8972 3.6749 3.0129 1.8426 0.2780 -1.4281
-2.8453 -3.4374 -2.8755 -1.5040 -0.1477 0.4272
0.0096 -0.8504 -1.5920 -1.7378 -1.4194 -0.7941
-0.1399 0.3582 0.5538 0.1486 -0.7344 -1.6141
-2.1995 -2.6044 -2.8090 -2.2499 -0.6925 1.0559
1.6439 0.6738 -0.9745 -2.0621 -1.8846 -0.6890
1.0491 2.7073 3.7545 3.7946 3.0310 2.0761
0.8647 -0.7910 -2.7088 -4.2399 -4.6646 -4.0409
-3.0565 -2.3575 -1.7120 -0.8588 -0.2889 -0.3411
-0.6791 -0.5818 0.0603 0.7780 1.1958 0.9707
0.2798 -0.8050 -1.9834 -2.4744 -1.7857 0.1113
2.2738 4.0244 5.1870 5.7165 5.6145 5.0296
4.1351 3.1342 2.1967 1.2739 0.2755 -0.7192
-1.4813 -1.9859 -2.2533 -2.5826 -3.1025 -3.5934
-3.7150 -3.2906 -2.2225 -0.5289 1.1368 1.9082
1.6666 1.2450 1.3370 1.9632 2.6725 3.1557
3.4535 3.4619 3.1401 2.3684 1.1859 -0.2857
-1.5910 -2.0064 -1.3880 -0.2550 0.8467 1.4123
0.9857 0.0100 -1.1150 -2.1989 -2.9710 -2.9877
-2.3301 -1.3460 -0.2696 0.8454 1.6119 1.5963
1.0702 0.4723 0.1831 0.2938 0.8249 1.3078
1.3597 0.6564 -0.4854 -1.4446 -1.8258 -1.5979
-0.8778 -0.0672 0.3271 0.0805 -0.1956 0.1035
0.9595 1.7425 2.0916 1.9138 1.1231 0.3971
-0.2360 -0.4185 -1.0851 -1.9443 -2.7197 -3.9134
-4.5536 -4.2016 -3.2629 -2.5061 -2.1849 -2.0363
-1.6806 -1.2733 -0.9505 -0.3784 0.6551 1.8494
2.7661 3.0481 3.1861 3.4859 3.8142 3.6958
3.0904 2.1582 0.9782 -0.5765 -2.2200 -3.2803
-3.6587 -3.3323 -2.3755 -0.9039 0.7242 2.2226
3.0686 3.2769 2.8708 1.8830 0.5982 -0.3031
-0.0426 1.0967 1.8224 1.3980 0.3849 -0.4300
-0.6850 -0.4229 0.1605 0.4782 0.2864 -0.3498
-1.0267 -1.1728 -0.4378 0.7540 1.3504 0.9406
-0.1523 -1.3140 -2.0807 -2.2825 -2.2483 -2.3466
-2.4607 -2.1687 -1.5304 -0.8914 -0.2245 0.5339
1.1309 1.2105 0.7770 -0.1467 -1.2686 -1.8003
-1.3473 -0.3874 0.5099 1.2779 2.2683 3.6398
4.6276 4.5092 3.4594 2.3805 2.1265 2.5923
2.9514 2.3323 0.6825 -1.1215 -2.4165 -3.1463
-3.3528 -2.8686 -2.0506 -1.6971 -1.8656 -2.0341
-1.6476 -0.9906 -0.6906 -0.8625 -1.0152 -0.6396
-0.0665 0.2699 0.3694 0.6206 0.9636 1.0643
0.8781 0.5684 0.0896 -0.6843 -1.4660 -1.9564
-1.9430 -1.9016 -2.5555 -3.7312 -4.3720 -3.8198
-2.5524 -1.5602 -1.2039 -0.9175 -0.2571 0.6785
1.2820 1.5730 1.7335 1.6016 1.0594 0.2108
-0.0870 0.4546 1.3812 2.2885 2.8743 2.9570
2.6759 2.2972 2.1576 2.1234 2.0739 2.0575
1.8762 1.1996 -0.1996 -1.5534 -1.9809 -1.0211
0.8144 2.3395 2.6370 1.7360 0.2516 -1.1663
-1.9001 -1.4841 0.0118 1.6107 2.5512 2.5161
1.7820 1.0908 1.0594 1.5432 2.0015 2.2953
2.4701 2.5285 2.5148 2.4290 2.1175 1.7649
1.7543 2.2005 2.8830 3.4610 3.7203 3.6756
3.3360 2.6181 1.8911 1.4564 1.1897 0.9145
0.5774 0.2108 -0.2170 -0.6461 -0.9122 -1.0245
-1.0195 -0.9113 -0.8109 -0.7776 -0.9676 -1.2241
-1.0195 0.0681 1.7674 3.2937 3.9001 3.5235
2.4996 0.9857 -0.5534 -1.5938 -1.8696 -1.5211
-1.2157 -1.6062 -2.7035 -3.9675 -4.5573 -4.3067
-3.5098 -2.2458 -0.7229 0.6757 1.4253 1.3588
0.7245 -0.2894 -1.6196 -2.9274 -3.6584 -3.3590
-2.1243 -0.6778 0.4036 0.6461 0.5134 0.7985
1.3324 1.6374 1.1203 -0.1725 -1.6955 -2.9097
-3.3157 -2.7980 -1.8189 -0.7160 0.5034 1.2689
1.2951 0.8187 0.1390 -0.2074 -0.1234 0.0647
-0.0612 -0.3669 -0.6330 -0.8398 -0.7555 -0.5410
-0.6256 -1.4881 -3.2523 -5.5796 -7.4950 -8.2375
-7.8656 -6.9655 -6.1014 -5.0588 -3.5645 -1.6899
-0.0087 0.9683 1.2459 1.0298 0.3610 -0.8575
-2.3332 -3.4504 -3.5471 -2.7645 -1.9321 -1.8136
-2.1028 -2.2617 -2.0913 -1.4436 -0.3871 0.5725
0.9173 1.0927 1.2957 1.4487 1.0973 0.3620
-0.3557 -0.6190 -0.2042 0.4751 1.0986 1.5295
1.4465 0.6514 0.1375 0.4577 1.4994 2.8174
3.7872 3.9103 3.3712 2.9163 2.8706 2.9461
2.6843 1.7957 0.4807 -0.7157 -1.4178 -1.2962
-0.4194 0.7435 1.5995 1.6073 0.7087 -0.6069
-1.5652 -1.9498 -2.1401 -2.5558 -3.1463 -3.4861
-3.3447 -2.6929 -1.8823 -1.1342 -0.6902 -0.3799
0.2149 1.4748 3.2776 5.0350 6.3002 6.9310
6.9988 6.4867 5.6130 4.6696 4.0397 3.7804
3.6662 3.2599 2.8625 2.9872 3.7673 4.8120
5.4933 5.3975 4.2592 2.7160 1.6617 1.6017
1.9539 1.9434 1.1548 -0.2204 -1.6821 -2.7371
-3.0319 -2.4056 -0.9076 0.6157 1.2419 0.6819
-0.2593 -1.0257 -1.7651 -2.9473 -4.5007 -5.6888
-6.0734 -6.0109 -6.0737 -6.1900 -5.8116 -4.5974
-3.3030 -2.4980 -2.1727 -1.8767 -1.2126 -0.4384
0.1972 0.5265 0.6515 1.0215 2.1943 4.2763
6.6758 8.3290 8.4422 6.5150 2.6713 -1.7869
-5.2948 -6.6116 -5.5840 -3.0418 -0.0954 2.1318
2.9461 2.5917 1.5109 0.3091 -0.2932 -0.0631
0.5675 0.7855 0.4245 0.1316 0.5663 1.6458
2.8270 3.2773 2.4692 0.3977 -2.2433 -4.6776
-6.2693 -6.5348 -5.3194 -3.0835 -1.1361 -0.2596
-0.3180 -0.7425 -1.0608 -0.7829 0.1322 0.7519
0.1823 -1.4685 -3.4762 -4.7519 -4.4438 -2.7909
-0.8712 0.5855 1.5728 2.0569 2.1380 1.9938
1.9241 1.9443 1.8656 1.5783 1.1325 0.7656
0.4008 0.0520 -0.2944 -0.4402 -0.2664 0.0719
0.6617 1.9966 4.1389 6.0524 6.5903 5.3773
3.3824 1.9589 1.7425 2.2758 2.6368 2.2888
1.3455 0.3265 -0.3283 -0.3426 0.1191 0.7087
1.0725 1.2083 1.3047 1.6673 2.0989 1.9210
1.1387 0.1785 -0.7530 -1.6022 -2.1597 -2.4383
-2.2744 -1.6028 -0.9741 -1.0145 -1.4909 -1.5764
-1.0487 -0.4415 -0.2179 0.0349 0.9655 2.5898
4.0751 4.6656 4.2863 3.4794 2.7220 2.1178
1.7727 1.5728 1.1900 0.0710 -1.6846 -3.1301
-3.4006 -2.5763 -1.5415 -0.9890 -1.1171 -1.7073
-2.1541 -2.0658 -1.8068 -1.6575 -2.1298 -3.4441
-5.1036 -6.3681 -6.5805 -5.6499 -4.0243 -2.2797
-0.7536 0.0259 0.2662 0.5616 1.1922 1.8716
2.1670 1.9421 1.3237 0.1795 -1.7511 -3.8483
-4.9994 -4.4304 -2.8932 -1.4203 -0.6594 -0.5531
-0.6146 -0.6131 -0.7089 -1.0260 -1.2098 -1.0226
-0.2132 1.0345 2.2179 2.4857 1.6539 0.1633
-1.3758 -2.3640 -2.4317 -1.4327 0.2000 1.8582
2.7024 2.3821 1.3187 0.4279 -0.0767 -0.5711
-1.1566 -1.7113 -2.0493 -1.8976 -0.9651 0.2246
1.1054 1.3408 0.6997 -0.7580 -2.4181 -3.1879
-2.3481 -0.4884 1.1763 2.0762 2.1020 1.5532
0.7158 -0.0180 -0.2536 0.0573 0.4332 0.8909
2.0068 3.7079 5.0975 5.4622 5.3120 5.2101
5.3525 5.3640 4.8634 3.9912 3.1999 2.6044
1.8122 0.7476 0.1730 0.8778 2.3370 3.5002
3.8469 3.6122 3.0111 2.2599 1.4801 0.6316
-0.1548 -0.5994 -0.4542 0.2047 1.1372 2.2590
3.3681 3.6815 2.9446 1.6331 0.6568 0.4009
0.5287 0.8573 1.2929 1.7348 1.4067 0.1024
-1.2835 -1.8758 -1.4741 -0.7228 -0.3681 -0.9284
-2.4439 -4.3178 -5.8358 -6.6131 -6.2108 -4.6596
-2.6435 -0.9759 -0.4452 -1.1016 -2.2676 -2.9333
-2.6093 -1.8058 -1.2455 -1.1765 -1.2359 -1.0782
-0.9570 -1.3068 -2.0095 -2.7710 -3.3813 -3.6792
-3.5561 -3.1251 -2.6372 -1.9933 -0.7303 1.2224
3.0454 3.8923 3.3075 1.5523 -0.5347 -1.9286
-2.1074 -1.3360 -0.4489 -0.2891 -1.0848 -2.4140
-3.3011 -3.0735 -2.0384 -0.8755 0.1347 0.8710
1.3066 1.4242 1.3461 1.1238 0.7799 0.2644
-0.4573 -1.3083 -2.1062 -2.4796 -2.2489 -1.6765
-1.1637 -0.8528 -0.5151 0.1565 0.8262 1.0653
0.7939 0.4146 0.1963 0.1341 0.1444 0.2308
0.2818 -0.0518 -0.5061 -0.6134 -0.0559 0.7302
0.9102 0.4833 0.1304 0.3029 0.7177 0.8887
0.5075 -0.2589 -0.8242 -0.6467 0.4360 1.8878
2.7248 2.2761 0.8981 -0.4753 -1.1541 -0.8736
0.2917 1.9145 3.2649 3.5531 2.5656 0.8663
-0.7337 -1.6332 -1.7520 -1.4302 -1.1003 -0.8954
-0.5555 0.2908 1.3757 2.0373 1.9957 1.5003
1.1819 1.3321 1.7183 2.1573 2.5709 2.7350
2.4198 1.7320 1.3013 1.6760 2.4813 2.6502
1.9136 0.9736 0.3788 0.2457 0.6692 1.8977
3.7244 4.9958 4.8478 3.8479 2.9950 2.5727
2.1853 1.5830 0.8946 0.1294 -0.7241 -1.5480
-2.1382 -2.2467 -1.8475 -1.3089 -0.8251 -0.1122
0.6838 1.1894 1.1736 0.9068 0.8312 0.8147
0.4320 -0.1532 -0.1255 0.8415 2.0690 2.9263
3.2969 2.9042 1.9845 1.3499 1.6869 2.6256
2.9773 1.8421 -0.5960 -3.3689 -5.3352 -5.7966
-4.9462 -3.5514 -2.4053 -1.7299 -1.1979 -0.3606
0.7889 2.1695 3.5895 4.4841 4.4265 3.3914
1.7979 0.0949 -1.3637 -2.1052 -2.0446 -1.7710
-2.1923 -3.4957 -5.2469 -6.7198 -7.4175 -7.3516
-6.9468 -6.5195 -6.0447 -5.5342 -5.0243 -4.6558
-4.2715 -4.0091 -3.9201 -3.4565 -2.1584 -0.7629
-0.4815 -1.5303 -2.9799 -3.7494 -3.4142 -2.1631
-0.7623 0.3766 1.0380 1.1956 1.1210 1.8909
3.6504 5.6034 6.8667 6.6031 5.2163 2.7229
-0.1961 -2.7255 -4.1008 -3.8915 -2.5816 -0.9796
0.3686 1.2162 1.3467 1.2783 1.0968 0.7345
0.0850 -0.6945 -1.1398 -0.8612 0.2202 1.3570
1.7451 1.5016 1.2569 1.4351 1.7817 2.0330
2.1197 1.8163 1.1409 0.3157 -0.4775 -0.7915
-0.7950 -0.8587 -1.1084 -1.1824 -0.5925 0.5290
1.8063 2.5410 2.2792 1.2942 0.5159 0.1002
-0.0117 -0.3211 -0.7723 -1.4958 -2.2977 -2.9612
-3.2187 -3.2264 -2.8664 -1.7489 -0.6261 1.1658
2.7177 3.3327 3.3193 3.3373 3.5988 3.7605
3.6172 2.6875 1.4789 0.7805 0.7858 1.1546
1.2435 0.6357 -0.6398 -2.1484 -2.9298 -3.0141
-2.7619 -2.6397 -3.1437 -3.7643 -4.0865 -3.8281
-2.9482 -1.2744 0.4373 1.8203 2.7935 3.4269
4.2459 4.6134 5.0095 4.5811 2.7711 0.4901
-1.3584 -2.2131 -1.8055 -0.7738 0.1307 0.6509
0.3804 -0.4193 -1.3556 -1.6351 -1.3462 -0.8307
-0.6864 -1.4395 -2.9634 -4.0687 -4.1222 -3.6676
-3.1785 -2.6521 -1.8089 -0.9461 -0.2601 0.2212
0.3686 0.3350 0.3577 0.3810 0.5380 0.9621
1.5582 2.0918 2.1651 1.6002 0.9015 0.6260
1.0713 2.1033 3.2425 4.0161 4.1563 3.8610
2.9717 1.2569 -0.8068 -2.3897 -2.8443 -2.3440
-1.0555 0.4068 1.1537 0.9488 0.3132 -0.4318
-1.0866 -1.2896 -1.2377 -0.9100 -0.4936 -0.2651
-0.5316 -0.8733 -0.9663 -0.7890 -0.0033 1.4397
2.6434 2.3931 0.3791 -2.2716 -3.7046 -3.3937
-2.0216 -0.9324 -0.7452 -1.0278 -1.0275 -0.5832
0.0287 0.5881 0.9712 1.1325 1.1353 1.0430
1.0001 1.1450 1.1655 0.9366 0.5691 0.1674
-0.1784 -0.3158 -0.0689 0.5194 1.0408 1.1447
0.8704 0.7165 0.8589 1.3567 1.7333 1.4090
0.7311 0.3278 0.5508 1.5165 3.1464 4.7987
5.8516 6.1090 5.7023 5.0046 4.3871 3.8970
3.6713 3.6206 3.6679 3.4291 2.4602 0.8571
-0.9224 -2.1518 -2.6313 -2.8654 -3.5333 -4.5743
-5.5034 -6.0690 -6.3954 -6.5083 -6.2686 -5.5108
-4.3346 -2.9223 -1.5017 -0.4865 -0.0621 -0.2639
-0.8074 -1.4669 -2.1064 -2.4164 -2.0763 -1.0996
0.0331 0.7672 0.8679 0.8036 1.1655 1.6602
1.8085 1.6204 1.3567 0.9964 0.2507 -0.7641
-1.8823 -3.0666 -3.8965 -3.4438 -1.5353 0.9606
2.9325 3.6816 3.3946 2.5731 1.7056 0.8704
-0.1093 -1.4065 -3.0821 -4.8069 -6.0034 -6.3031
-5.9048 -5.1436 -4.3915 -3.7684 -3.2037 -2.5906
-1.8683 -0.7138 1.0234 2.7609 3.8687 3.8806
3.0507 1.6011 0.1789 -0.5580 -0.5499 0.1049
0.9438 1.6356 1.9226 1.8430 1.4475 0.8735
0.3677 0.3223 0.6462 0.8244 0.5017 -0.2912
-1.1031 -1.7212 -1.5468 0.0968 3.0578 6.0083
7.4044 6.3976 3.0924 -1.2940 -4.8796 -6.2120
-5.2366 -3.1173 -1.8337 -2.3241 -4.1004 -5.8864
-6.6134 -5.9300 -4.0899 -1.8294 0.2330 1.5147
1.8617 1.7563 2.0414 2.7780 3.2233 2.7889
1.6409 0.2445 -0.6283 -0.5978 -0.0117 0.4000
0.1656 -0.3214 -0.5412 -0.2178 0.5175 1.4553
2.2731 2.4350 1.4820 -0.0916 -1.4684 -2.2774
-2.6328 -2.8458 -2.9357 -2.5458 -1.4361 0.2850
2.1561 3.7609 4.2263 2.9845 1.1043 -0.2962
-0.4874 0.3024 1.3437 2.3272 3.3476 4.1561
3.9872 2.9403 2.1024 2.3722 3.2516 3.5190
2.7276 1.0511 -0.9628 -2.8129 -3.8222 -3.7342
-3.3617 -3.3632 -3.9394 -4.3849 -4.4857 -4.5155
-4.9092 -5.9937 -7.2757 -8.0732 -7.7153 -6.1224
-4.0529 -2.3891 -1.6354 -2.0166 -2.8060 -3.7314
-3.7830 -2.3483 0.2190 2.5442 3.2118 2.7373
1.0788 -0.8985 -2.2034 -2.7594 -2.6950 -1.8316
-0.2287 2.0713 4.3209 5.5438 5.9312 5.6464
4.9216 4.3265 3.9714 3.5009 2.5952 1.3309
0.3133 -0.0707 0.6441 2.1938 3.8781 4.8096
4.9424 4.7608 4.5901 4.6548 4.6324 4.0883
2.7985 1.3599 0.4759 0.4756 0.8959 1.2053
1.4553 1.9167 2.3200 1.8887 0.6606 -0.7299
-1.4591 -1.3760 -0.5486 1.0085 3.0871 4.9813
5.8261 5.3855 3.8053 2.0840 0.8512 0.1500
-0.0776 0.1214 0.1174 -0.4942 -1.1316 -1.0213
-0.0701 1.2056 2.2637 2.8449 2.8766 2.5299
1.8950 0.6565 -0.5387 -1.4230 -1.7044 -1.3244
-0.6553 0.0661 0.0260 -1.3630 -3.7749 -5.6479
-6.2580 -6.1896 -6.2328 -6.8155 -7.5030 -7.8997
-7.8671 -7.1507 -5.3628 -2.7130 -0.3860 0.4896
-0.1444 -1.5287 -2.6412 -3.0675 -2.9596 -2.8013
-2.5933 -2.1300 -1.3073 -0.2859 0.4669 1.4034
1.9755 1.8424 1.0517 -0.2113 -1.3714 -2.1574
-2.6935 -3.3638 -3.9695 -4.3933 -4.4210 -3.9832
-3.1564 -2.1282 -0.9594 0.3599 1.6549 2.5877
2.9916 3.0719 3.0492 3.1956 3.4789 3.5249
3.1393 2.4006 1.6612 1.0778 0.3711 -0.6457
-1.9242 -3.0426 -3.5846 -3.3411 -2.2930 -0.6858
1.4276 3.3903 4.3675 4.3013 3.4583 2.5526
2.3971 3.2923 4.7210 5.7123 5.6868 4.8013
3.5174 2.1316 0.6721 -0.6637 -1.2053 -0.5999
0.7610 2.1708 3.1356 3.6191 3.6116 3.2973
3.1362 3.2140 3.2084 2.7923 2.1555 1.8001
1.6189 1.0141 -0.2840 -1.9814 -3.7310 -5.2089
-6.3049 -6.5994 -6.0574 -5.2188 -4.5124 -3.8377
-2.5958 -1.0682 -0.1824 -0.3596 -0.5769 -0.7103
-0.9078 -1.3944 -2.4332 -3.2901 -3.4988 -2.9503
-1.6375 0.0723 1.7771 3.4879 4.6051 4.7820
4.2428 3.5395 2.8810 2.1630 1.5461 1.5660
2.2376 2.8965 2.8492 1.5387 -0.7691 -2.9898
-4.2012 -3.8946 -2.0035 0.6065 2.7628 3.6294
3.1474 2.1580 1.4333 1.3701 1.6957 1.3869
0.3067 -1.1521 -2.3850 -3.1598 -3.2534 -2.6319
-1.2140 0.6357 2.0822 2.8125 2.6129 2.2373
1.3300 0.3192 0.0667 -0.0978 -0.1214 0.3167
0.4672 -0.4964 -2.2031 -3.8840 -4.6999 -4.5214
-3.7923 -2.4658 -0.5256 1.2557 1.9121 1.2607
-0.1531 -1.5688 -2.2404 -1.7451 0.1942 3.2699
6.0618 7.2701 6.5742 4.9126 3.1667 2.0079
1.6145 1.5607 1.6245 1.4000 0.6438 -0.6568
-1.8244 -2.3234 -2.1941 -2.0128 -2.2556 -3.1014
-4.2357 -5.1924 -5.8889 -6.1638 -5.8245 -4.6685
-3.1558 -1.9643 -1.3462 -1.3244 -1.4824 -1.3260
-0.7887 0.1441 1.4314 2.3720 2.3375 1.9519
1.1820 0.1998 -1.2830 -3.2261 -4.3905 -4.4620
-3.1838 -1.3916 -0.2989 0.0907 -0.1951 -0.6425
-1.0219 -1.9624 -2.4291 -2.5538 -2.9786 -3.4913
-3.9424 -3.7739 -3.1555 -2.0395 -0.6267 1.0157
2.2292 2.8760 3.6334 3.6791 3.0545 2.5060
1.1621 -0.3947 -1.0996 -1.9802 -2.7886 -3.2261
-3.2030 -2.6875 -1.1077 1.3387 3.0249 3.2261
2.2296 0.9062 0.5655 1.4939 2.7314 3.4220
2.9646 1.5968 0.0394 -0.8717 -1.1024 0.0810
1.6861 2.6313 2.1848 0.9983 -0.2688 -1.7131
-2.3822 -2.8038 -2.8660 -2.5006 -1.9652 -1.7653
-1.2858 -0.5778 0.2794 0.8444 0.7495 0.7100
0.9815 1.5604 2.2641 2.8679 3.1624 3.2382
2.9687 2.8959 3.0377 3.2734 2.6876 1.4389
0.0005 -1.1975 -1.2137 -0.2579 0.8145 0.7365
-0.4793 -2.1198 -2.5952 -2.2821 -0.7373 1.9998
4.4188 6.7987 8.0919 6.9243 4.1573 1.5110
-0.1108 0.3307 1.4715 2.0508 1.7871 0.0129
-2.1337 -3.5342 -4.2341 -4.7083 -5.5207 -6.4339
-6.8375 -6.0465 -4.6022 -2.1452 0.6979 2.5190
3.3754 3.0212 1.0387 -1.6164 -3.7055 -5.3852
-6.3248 -7.0860 -6.7296 -5.5531 -4.0220 -2.3971
-0.9000 0.2825 1.1979 1.8325 2.1453 2.3732
2.3284 2.0132 1.1876 0.3108 -0.0890 0.6659
2.0781 3.8959 5.3355 5.6554 4.3088 2.5899
0.7999 0.4815 1.0008 1.8471 1.9034 0.6413
0.9423 1.0934 0.9532 0.9600 1.2293 1.4314
0.8867 -1.2600 -3.6965 -6.0341 -7.2930 -6.6189
-4.7966 -2.5414 -0.5850 0.3945 -0.1836 -1.3499
-2.9092 -4.2810 -5.6373 -6.5925 -6.6864 -6.0415
-4.5114 -2.3977 -0.2629 1.6388 3.2802 4.4801
5.5236 6.3889 6.5811 6.2456 5.1654 3.6269
1.8403 0.6998 0.6093 0.7306 -0.0866 -1.6670
-3.0808 -3.6909 -2.7133 -0.4025 2.1904 3.9220
4.6915 4.0193 2.1494 0.1927 -0.6217 -0.3238
1.1497 2.8325 4.3380 4.8022 3.0069 0.2772
-2.3980 -3.9508 -4.0071 -3.0740 -1.8421 -0.5414
1.0835 2.6437 3.1101 2.3198 0.7530 -0.8900
-1.7765 -1.4441 -0.1142 1.6553 2.9998 3.4111
2.7715 1.4790 0.5764 0.7427 1.8142 3.6854
4.8237 4.5420 3.6499 1.3748 -1.3150 -2.7058
-3.1956 -2.6203 -1.2317 -0.4391 -0.1811 -0.1624
-0.2632 0.4408 1.8369 3.0632 3.6350 3.4220
2.9879 2.2843 1.6233 0.6703 -0.2597 -0.9289
-1.4102 -1.5010 -1.3726 -1.2339 -1.3188 -1.7665
-2.2090 -2.0411 -1.3959 -0.3502 0.7502 1.2327
0.5922 -0.8592 -1.9811 -2.0622 -1.9077 -2.0774
-3.2745 -4.2170 -4.9529 -4.5319 -4.0547 -4.7005
-4.7704 -4.6377 -3.9524 -2.8694 -1.1767 0.9448
3.5750 5.7525 7.2782 7.4355 6.2630 4.5196
2.2793 0.3736 -0.8782 -1.0977 -0.1920 0.9697
1.3111 1.1861 1.0925 1.1886 1.1500 0.8148
0.6389 0.2291 -0.2778 -0.9920 -1.8641 -3.0659
-4.7636 -6.4551 -7.5418 -7.2588 -5.6087 -3.2462
-1.2019 0.6986 2.1637 3.3822 3.6745 4.6207
5.1698 5.2590 5.5323 3.7311 1.4921 0.0049
-0.2355 1.1870 3.2364 4.4319 4.8414 3.7289
1.8126 -0.0990 -1.2124 -1.3520 -0.1543 1.8820
3.9158 5.3392 5.4910 4.7777 3.4929 2.6276
2.7367 4.1005 5.5202 6.1417 6.2307 6.6218
7.0612 7.6237 7.8855 7.7477 7.5963 7.1066
6.1775 4.8750 3.2115 1.0185 -1.5218 -4.1949
-5.8954 -6.3599 -5.7514 -4.2300 -2.4966 -1.0719
-0.1730 0.5677 1.6820 3.2146 4.5610 4.9832
4.4562 3.1954 1.7492 0.2505 -0.8269 -1.0430
-0.5234 0.2051 0.9700 1.6251 1.7704 1.3459
0.2054 -0.8869 -2.3215 -3.9147 -5.4548 -6.7999
-7.4591 -7.5772 -7.7787 -8.0337 -8.2653 -8.5249
-8.0937 -7.2653 -6.2228 -5.1128 -3.5911 -2.2062
-1.0162 0.5080 2.4541 4.5370 6.0625 6.8547
7.4219 8.0415 7.8780 6.1775 2.8683 -0.7703
-3.1181 -3.5945 -2.8840 -2.1567 -2.2018 -2.5998
-3.3575 -4.2841 -5.6855 -7.5648 -9.0607 -9.9219
-9.2708 -6.9619 -3.9209 -0.8710 1.5179 2.5887
2.6904 2.4187 2.8586 4.3869 6.7782 9.0474
9.8925 8.8071 6.0895 2.8692 0.4361 -0.1546
0.8696 2.5440 3.5411 3.3499 2.1363 0.7406
-0.2712 -1.0305 -1.3844 -1.1002 -0.1723 1.0216
2.5906 4.0821 5.0037 4.8570 3.8430 2.7041
2.1034 2.3045 2.7476 2.7983 1.9523 0.5344
-0.9596 -1.6605 -1.5432 -0.8617 -0.8237 -1.5268
-2.9406 -4.0954 -4.2639 -3.5677 -2.2208 -1.7270
-1.8393 -2.9011 -4.4564 -6.2281 -6.9852 -6.0129
-3.3771 -0.4578 1.6721 2.7573 2.4706 2.0940
2.6839 3.7028 5.2926 7.9082 9.4106 10.2016
10.2669 8.9809 6.7730 3.0467 -0.9049 -4.0643
-6.9808 -8.7957 -9.6387 -9.2146 -8.6888 -8.2345
-7.4351 -7.6369 -8.0955 -8.0514 -6.9245 -5.0179
-3.0248 -2.1269 -2.4129 -2.7434 -2.9474 -2.2798
-0.4842 1.7051 3.9251 4.9484 4.7301 3.9690
3.1550 2.5825 2.6130 2.4843 1.3198 -0.5694
-2.6349 -4.0369 -4.1725 -3.1579 -2.5780 -1.5442
-0.8595 -0.4133 0.1206 -0.2774 -0.5884 -0.6941
-0.0859 1.3783 3.0741 4.0896 4.5119 3.8648
3.9276 4.3471 5.1916 5.9160 5.9024 4.7245
2.4616 0.0649 -1.4652 -1.4854 -2.3231 -0.9637
0.1025 0.0463 -0.5193 -1.2730 -2.0298 -1.4985
0.3796 2.6565 4.5308 5.4335 5.9621 4.6095
3.0639 -0.3272 -1.6042 -1.2264 -0.2849 1.3618
2.1478 2.4177 2.0232 1.7228 1.6202 1.2912
2.0247 4.6247 5.6648 6.3883 5.9045 3.8169
1.6494 0.0960 -0.5650 0.0096 0.5322 0.8957
0.3961 -1.6418 -3.2279 -4.9535 -5.9678 -7.4099
-7.9121 -9.3999 -9.3849 -6.9357 -5.4069 -3.1980
-2.3799 -1.7789 -1.2242 -0.6487 0.0049 0.9361
1.4710 1.9675 2.7333 3.5247 5.0647 7.4405
10.3540 12.3365 13.1950 12.1362 10.3288 7.9303
6.2257 5.1281 4.4777 4.1170 2.5343 0.4928
-1.5488 -3.7114 -5.7063 -6.9071 -7.6773 -7.9500
-8.4419 -8.3365 -8.3573 -8.5485 -8.1841 -7.2955
-5.5325 -3.3852 -1.1860 0.2051 1.5677 3.3614
5.8327 7.8261 7.9427 6.7549 4.1838 1.7971
0.7813 0.9508 2.0801 3.0918 3.3272 3.3910
3.6089 3.7644 4.5828 5.1928 4.9267 3.7880
2.6811 1.7203 1.0213 0.8158 1.0580 0.7611
0.3233 -1.2547 -3.6532 -5.1867 -5.6003 -4.3935
-2.5911 -0.0567 0.2285 -0.9574 -2.4337 -3.4125
-3.5024 -2.7092 -2.6884 -1.6508 -0.5268 0.3134
1.5733 2.9457 4.5557 5.6835 8.4284 7.3815
6.2966 5.7180 3.2924 0.9091 -0.5283 -1.7006
-1.9739 -2.9042 -4.3895 -4.1675 -3.3762 -1.6586
0.2344 1.8416 1.8910 1.2064 -0.0203 -1.4378
-3.2698 -3.9875 -3.8230 -2.5382 -1.8119 -2.3115
-3.1899 -4.0378 -4.8901 -4.1893 -1.7071 1.3062
5.0647 6.9393 7.6797 6.5504 4.6748 2.2999
0.3339 -1.4285 -3.0854 -3.6852 -3.3662 -2.4322
-2.2770 -3.1134 -5.0288 -7.1478 -8.9086 -9.4785
-8.5491 -6.1817 -3.3902 -0.9070 0.9498 1.9731
2.6236 3.4168 4.7613 6.7584 8.2975 8.5556
7.4060 5.3816 3.1646 1.3562 0.1495 -0.1698
0.0059 -0.2553 -0.9748 -2.2413 -3.0649 -3.1283
-3.2250 -4.1103 -5.8835 -7.9577 -9.5068 -10.0348
-8.8178 -6.2100 -3.2773 -0.8834 -0.0744 -0.3561
-0.3747 0.3305 1.4573 2.1277 1.6976 0.4464
-0.7774 -1.7189 -2.2145 -2.6688 -3.4635 -5.1472
-8.4832 -11.9427 -15.2388 -17.4378 -18.3252 -18.0848
-16.4527 -13.9248 -10.2114 -6.1951 -1.7988 2.6497
6.4073 8.4359 8.9638 8.8771 9.2664 10.3437
11.4432 12.5514 13.2752 13.5261 12.8704 11.5536
9.5916 8.2801 7.4393 8.0842 9.3668 10.2246
10.4193 9.3220 7.0205 4.8552 2.3540 -0.5327
-1.9306 -2.8441 -2.5304 -3.2151 -3.0848 -3.2586
-2.8246 -2.3445 -2.6703 -2.8662 -3.5717 -3.2412
-3.7710 -5.4976 -7.5641 -9.0721 -10.1685 -8.8022
-6.6646 -3.3317 -0.7115 0.0351 0.5780 1.4187
3.0281 5.0156 7.1828 7.7350 6.7189 4.2771
1.0574 -1.0190 -0.6272 1.1831 3.5598 5.0106
5.4391 4.9024 4.0216 4.0191 4.9764 6.2083
7.9511 8.7679 7.7702 6.8246 6.0591 5.3293
4.7044 3.9957 2.4060 0.2826 -1.5902 -1.9511
-1.6113 -1.2407 -1.3632 -1.9434 -2.8843 -4.4688
-6.5843 -8.5501 -9.7338 -10.1619 -9.6682 -9.1673
-8.4450 -8.0538 -7.1167 -5.7305 -3.9451 -2.7111
-2.0093 -2.1113 -2.4020 -2.5118 -2.0376 -0.6844
1.1000 2.8049 4.0999 5.5380 6.2848 7.6610
5.5700 4.2563 3.3332 0.2266 -2.8267 -5.6767
-7.8116 -8.6408 -7.5915 -6.2311 -4.1861 -3.6687
-3.8226 -3.9063 -3.4399 -2.6029 -0.7500 1.5307
3.0965 3.3164 1.8572 -0.1051 -1.8066 -2.4430
-2.0466 -0.7024 1.4483 3.4392 4.1099 4.1397
3.4411 3.1640 3.3294 3.7156 4.7159 5.7513
6.3635 5.9431 5.3042 4.4687 3.6236 2.3798
1.4822 -0.2363 -1.4676 -1.5161 -0.2625 2.1743
3.5732 4.7753 4.3524 4.6201 3.8841 4.2392
3.6009 2.6361 3.6668 4.1658 5.1742 4.8838
4.7610 4.6394 3.5091 0.3205 -2.7872 -5.6515
-7.3125 -8.4876 -8.3539 -7.8041 -7.2112 -5.9954
-4.5428 -3.0158 -1.7381 -0.4667 -0.7823 -0.1642
1.4713 4.0194 6.1888 7.5883 7.3918 7.8613
8.8214 10.0608 10.3108 9.2564 7.3451 5.4208
4.7106 3.7128 3.4264 2.6979 2.0826 0.8093
-0.4409 -2.3034 -3.4386 -4.5229 -5.6024 -6.0990
-5.6944 -5.4460 -5.1550 -3.1582 -0.1844 2.4725
0.8780 -0.5414 0.8833 2.6768 3.9395 5.4662
6.3259 2.0751 -2.6075 -5.6935 -7.2140 -6.8884
-8.9804 -9.7307 -9.0062 -7.3215 -6.9761 -5.2215
-3.1196 -3.6090 -4.4100 -5.3338 -5.9976 -6.8436
-7.1493 -5.5069 -3.2900 -1.5199 0.8827 2.9827
5.1919 6.2149 7.0379 7.1642 7.3262 5.1922
4.2591 0.5901 -2.7023 -3.9168 -7.2777 -8.1564
-8.4198 -6.5766 -5.5754 -4.9634 -4.9118 -3.6812
-2.5475 -2.3022 -1.0622 -0.3284 0.4993 2.3332
4.1547 5.7811 7.5758 8.5556 9.0817 8.4172
6.2687 4.4709 3.1118 1.2431 0.3426 -0.6026
-0.6325 0.2089 0.1421 0.4996 0.6545 0.1169
-0.4406 -1.4368 -3.3708 -4.8378 -7.0016 -9.2226
-10.6840 -11.5026 -10.3687 -8.6365 -4.5916 -2.9924
-3.2356 -3.0459 -2.6877 -2.4722 -1.5534 -0.2363
1.2254 2.9103 2.9806 4.4740 4.6972 5.2482
4.4245 3.8782 3.3437 3.7439 5.0290 6.1639
7.7512 7.5134 6.5955 4.5172 3.9087 3.9582
5.4512 7.5233 9.3970 9.4722 8.0587 5.7491
3.0453 1.0578 -0.2012 -0.2534 0.3081 0.6265
0.7397 1.4688 1.9334 2.4103 2.2427 1.1635
0.0637 -0.8781 -1.6013 -1.9807 -2.7801 -3.4958
-4.3117 -5.2162 -6.3754 -6.5311 -6.7945 -6.8197
-6.8449 -7.3066 -5.9712 -3.1662 -0.3983 1.9909
3.7629 4.5872 6.2659 6.9857 7.6617 6.8449
3.9187 -0.1552 -3.5509 -5.4233 -5.5934 -4.2903
-3.1423 -1.3215 -0.2108 0.9807 2.1072 3.6283
5.7669 7.6778 9.0419 9.1025 8.5898 7.2603
5.7239 5.0999 4.1783 4.9112 4.3055 2.7387
2.4738 2.3074 3.4554 5.0498 6.0507 5.2265
2.7623 -0.5951 -3.0123 -5.0738 -6.0187 -5.9485
-6.6990 -7.6381 -8.1380 -9.3168 -9.7198 -10.1669
-10.3052 -8.8694 -6.7531 -4.1802 -2.7250 -1.7714
-1.8326 -2.8382 -2.9324 -2.8712 -4.2700 -5.3822
-5.4140 -3.2343 -1.0363 0.5037 1.7773 3.7026
4.8568 6.3191 9.4355 10.3721 9.2757 7.0445
5.0778 3.0204 2.0758 2.1031 1.9125 1.9396
3.2763 5.7479 7.8597 8.5883 8.6175 8.8631
8.8535 8.8249 9.6361 9.4984 9.1797 6.9385
2.9436 -1.4141 -6.1879 -8.3128 -8.7123 -7.8072
-6.2911 -5.2569 -4.4877 -3.7520 -3.1737 -2.1063
-0.8765 0.4561 1.6445 2.9392 3.5409 3.3456
2.1150 0.3803 -1.2969 -2.1616 -2.1091 -0.8137
0.4512 0.8868 0.8414 -0.1054 -0.7991 -1.4744
-1.7210 -2.0319 -1.2643 -0.4375 0.6694 1.3790
2.3112 3.5521 5.1027 6.1465 6.6095 5.0977
2.2173 0.3747 -1.7291 -2.7496 -2.7598 -2.2645
-2.0826 -2.2434 -3.2993 -4.0443 -4.5779 -4.8474
-5.4457 -4.1684 -2.7489 -2.4383 -2.3478 -3.0341
-2.8183 -2.2387 -0.9250 0.4630 0.8607 0.9543
0.9888 0.8429 1.1075 1.1887 1.6159 1.1573
0.1412 -0.5404 0.2264 1.7502 3.7707 5.7809
6.7805 7.1651 7.4151 7.6499 7.4717 7.2043
6.0507 5.4454 4.0123 2.4834 0.6443 -0.8355
-1.4384 -2.5593 -2.9996 -4.2918 -5.8405 -7.2024
-8.4903 -9.2465 -10.3217 -10.9653 -10.3817 -9.2987
-8.0777 -7.3134 -6.2180 -4.0263 -1.1632 1.9029
4.6914 5.6627 5.3922 3.2098 0.1262 -2.4215
-4.0008 -3.8313 -2.4604 -0.7018 0.3259 2.2925
2.6395 1.4014 0.8622 0.8750 -0.6567 -2.4902
-4.9308 -5.7277 -4.7517 -3.4218 -2.1003 -2.5018
-3.9451 -5.4220 -4.9391 -5.5924 -5.0231 -5.7137
-6.8657 -7.8386 -9.2844 -9.1442 -8.8672 -7.9154
-5.8474 -4.2859 -3.2041 -1.8289 -1.6834 -0.6542
0.3402 1.3423 1.8899 2.4974 3.1961 3.3550
3.3960 2.5509 3.3715 4.6923 6.0312 9.0823
11.2066 11.5766 10.1473 7.8744 6.5538 5.6730
6.0688 7.9033 10.5447 13.4733 15.4512 16.0553
14.1350 10.4066 6.3984 3.4871 1.6066 0.7829
0.6380 0.2065 1.0898 3.0493 5.3325 7.1882
7.5439 6.3474 4.5732 2.1576 0.3983 -0.8896
-1.2798 -1.0920 0.0930 1.3302 2.0886 2.0951
1.1645 -0.2935 -2.5960 -3.7088 -4.4000 -4.4902
-4.6643 -4.7417 -5.0480 -3.9740 -3.2909 -1.5895
0.1835 2.0173 4.2368 4.9581 4.1727 2.1492
0.5609 -2.0058 -3.1264 -5.3586 -7.3324 -9.4878
-11.2722 -11.2952 -9.6028 -6.8193 -3.8745 -2.2060
-2.1479 -2.5882 -3.9028 -4.4211 -5.6739 -4.9820
-2.3009 0.9518 4.4840 7.5585 8.7658 9.1069
8.6216 7.2656 5.9049 3.8602 2.1377 0.1490
-1.2310 -1.7583 -2.2306 -2.5876 -3.2971 -5.2333
-7.8675 -9.9032 -10.8285 -10.0636 -8.4816 -6.4406
-3.9264 -1.4141 1.0600 2.8985 4.9463 5.4535
5.4637 4.0717 1.7465 0.2227 -1.5291 -1.7925
-1.2913 -0.5373 0.0880 0.6856 0.2283 -0.7953
-2.6516 -4.3782 -5.5352 -5.2510 -3.3098 -1.0173
1.1688 1.9477 0.9925 -0.5071 -2.1684 -2.8929
-2.6759 -2.0005 1.1256 3.6687 5.5688 5.7457
5.0919 3.6771 2.1085 1.3383 1.6887 2.6165
1.3955 -0.3837 -2.1653 -2.9893 -2.5366 -1.9153
-2.3758 -3.0179 -4.7109 -6.6928 -8.5285 -10.5316
-11.7964 -12.0020 -11.7190 -10.9513 -10.3058 -9.8177
-8.0600 -5.8561 -3.7159 -2.0241 -0.7655 0.1123
0.5311 0.6430 1.0497 1.3529 1.2338 0.6486
0.4904 0.1993 1.2152 2.3336 3.9856 6.8639
5.9074 5.6298 4.8245 2.6601 1.3489 -0.4222
-1.8068 -3.0530 -3.7545 -3.6889 -3.3117 -3.0745
-1.7371 -1.5599 -1.0848 -0.5062 -0.9374 -1.3880
-2.1622 -2.2953 -2.1899 -1.8935 -2.1429 -3.2843
-4.3639 -5.6941 -6.6999 -7.0668 -8.0917 -9.5425
-9.3612 -7.7736 -4.9099 -0.6610 1.8532 4.4423
4.9373 4.1168 3.2256 2.2910 2.6964 3.2247
5.4019 7.1014 6.6360 4.8164 1.4994 -2.1168
-3.7989 -3.8854 -3.3269 -2.4635 -1.0683 0.2594
1.4648 0.8203 -0.6626 -2.3497 -4.0079 -4.1739
-3.7629 -3.5440 -4.4373 -5.7391 -6.2559 -5.4895
-3.4165 0.4409 5.2865 10.0466 13.2461 14.3810
13.4603 11.7244 10.8998 11.3223 12.9342 14.4634
15.1857 14.9036 13.6245 11.1955 8.5426 6.4003
5.0362 4.2670 3.0773 1.5183 -0.2154 -1.6750
-2.7219 -3.6285 -4.9945 -6.6965 -8.5988 -10.4317
-11.7647 -12.7078 -13.1875 -13.2761 -12.9798 -12.3244
-11.4221 -10.2138 -8.9368 -7.9807 -7.1240 -6.3284
-5.6054 -4.7812 -3.4053 -1.0873 1.4568 3.1824
4.7862 5.6761 5.1056 3.7838 2.5155 1.5650
1.2180 1.2453 1.4910 1.8747 2.2761 3.4545
4.5170 4.9432 4.6392 4.2321 3.7051 3.1921
2.7390 2.2863 2.4060 2.8239 3.6793 4.9678
6.4914 7.5305 7.5100 6.4712 4.5801 2.2316
0.0041 -1.5599 -2.5428 -3.1624 -3.7063 -4.1030
-4.4174 -4.6786 -4.8228 -5.0669 -5.0523 -5.1726
-5.2889 -5.4127 -5.3996 -5.1717 -4.9540 -4.1982
-2.3627 0.0240 2.3865 4.3419 5.3179 5.1979
4.5636 3.5024 2.5581 1.6819 1.3038 1.1760
1.1586 1.9505 2.6287 4.2057 5.5636 6.2336
5.6743 4.5064 1.5631 -1.5813 -3.5732 -4.9727
-5.3713 -5.5824 -5.7080 -6.1685 -6.2015 -6.3734
-5.5709 -4.5560 -3.1755 -1.5835 0.0153 0.5572
-0.4953 -2.7585 -4.5091 -5.1770 -4.7044 -3.0601
-1.8435 -1.7480 -2.3985 -3.7280 -5.3085 -5.5386
-5.5395 -4.3347 -3.7258 -3.7262 -3.0642 -1.9719
-0.4275 1.1869 1.7823 1.5410 1.5040 1.1387
0.1776 -0.4713 -0.0220 1.2976 3.2384 4.7471
6.1005 7.2877 8.1558 8.5034 8.0821 6.8515
4.8801 3.2950 2.5761 3.0662 3.9797 3.7493
2.8939 0.9313 -1.4483 -3.2436 -4.4407 -4.8996
-5.4994 -6.0768 -5.7864 -5.3424 -4.8545 -4.3592
-3.6267 -2.0107 0.1241 2.7829 4.8920 5.8994
5.2878 3.6212 2.5771 1.3277 0.1537 0.0464
-0.0416 0.0318 0.3017 0.8020 0.5000 0.0287
0.0175 0.1359 0.1876 0.3691 0.2759 -1.0223
-1.7309 -2.7414 -3.0303 -2.8499 -2.7268 -2.3826
-2.0086 -2.4691 -3.6456 -4.3182 -4.7252 -4.1726
-3.7544 -3.0169 -2.4106 -2.0583 -1.5667 -1.1743
-0.6775 -0.9082 -1.4999 -1.6361 -0.9234 -0.2630
0.3897 1.0460 1.2792 2.6262 4.4016 5.6273
5.7069 6.1046 5.8938 5.7103 7.4258 9.5301
12.0981 14.2694 13.9597 12.9168 11.8749 9.4142
7.7451 5.7607 3.4679 1.8025 0.7954 -0.3836
-1.6043 -3.5495 -5.0781 -6.4934 -8.1016 -9.7477
-11.0303 -12.2939 -13.9313 -14.9654 -15.6345 -14.0709
-11.9848 -9.0757 -6.1984 -3.8620 -2.7215 -1.5058
-1.3845 -0.8932 0.3772 2.1620 4.4075 5.6261
7.0044 7.7193 8.7898 9.4916 9.8321 9.1073
7.9932 6.6447 5.9454 5.2309 4.6078 3.2111
0.9509 -1.9896 -5.5100 -8.7147 -10.9880 -12.1111
-13.4067 -14.2739 -15.3954 -15.5823 -14.9716 -13.1437
-10.6086 -8.7060 -7.2692 -6.3007 -5.3511 -3.6820
-1.9821 -0.7605 -0.3376 -1.1572 -2.6923 -4.3035
-5.0675 -4.7874 -3.5669 -2.0117 -1.2598 -1.4681
-2.2679 -3.1739 -3.4248 -3.0502 -2.2654 -1.0257
0.3135 1.5311 2.6669 3.6495 4.7437 5.3941
5.8646 4.6373 3.6019 3.3796 1.8013 0.6841
-1.3136 -3.8455 -6.4710 -8.8220 -10.0626 -9.9240
-8.5070 -7.1364 -5.5283 -4.4864 -3.6067 -2.9693
-2.1220 -0.1053 2.4664 4.6034 5.5253 5.1000
4.2913 4.1053 4.4010 5.3512 6.5604 7.4416
7.3061 6.5135 5.1351 4.2838 4.5375 5.1936
5.9317 6.5039 6.8676 7.1534 7.2989 6.9342
6.1407 5.0378 4.0304 3.0671 2.3159 1.5495
0.8707 0.0079 -0.8351 -2.2001 -3.5837 -3.2977
-3.4618 -3.2566 -2.5667 -3.1033 -4.4369 -6.0625
-7.7073 -8.6967 -9.4914 -10.0178 -10.1677 -10.5872
-10.3325 -10.4245 -10.1802 -10.0116 -9.2965 -9.0577
-8.4016 -7.7141 -6.3877 -3.6164 -2.2990 -0.0263
2.4978 4.8096 6.4442 7.5358 8.1537 8.7500
8.5669 8.5156 8.8393 9.4331 10.1753 10.4051
9.8268 8.2277 6.4373 5.2424 5.4772 5.4445
5.6071 5.4116 4.4561 2.6377 1.0532 0.1779
0.0107 -0.0319 0.0784 0.1991 0.0831 0.4124
1.0479 1.2656 1.1875 1.3035 2.0420 3.7353
5.5030 7.3518 9.3501 10.4757 11.0833 10.8190
8.2631 6.0658 3.7425 1.8495 0.8269 0.0669
-0.3836 -0.2462 0.2669 1.1387 1.4686 1.8178
1.3617 0.5943 1.0510 1.2867 2.1611 2.7270
3.0034 2.6881 3.5799 3.9912 5.1187 4.7676
4.0916 2.5093 -1.0689 -2.6307 -4.6620 -5.6542
-5.9720 -5.1838 -4.7326 -3.9550 -3.3639 -1.8385
-0.0677 1.2121 2.5759 2.8243 3.0208 2.6449
2.4114 1.3825 0.4189 -0.5552 -0.6818 -0.4669
-0.0574 0.9683 1.8377 2.4061 2.4058 2.1953
1.5535 1.2842 1.8315 2.2192 2.5286 2.8349
2.1262 1.2749 0.5405 -0.0966 -0.8046 -1.0913
-1.3584 -1.2735 -0.9762 -0.5661 0.1133 0.2967
0.3937 0.0523 -0.3074 -0.1209 0.2722 0.2961
0.3748 0.5735 0.7700 0.3415 0.1835 -0.2729
-0.2872 0.4951 1.2379 1.2709 0.3490 -0.6286
-1.4028 -1.4193 -0.9386 -0.1700 0.3561 0.5775
0.0872 -0.5213 -1.6687 -2.7299 -4.4179 -4.9518
-5.1163 -6.0457 -6.6818 -7.3161 -7.6603 -7.9679
-7.4906 -7.4016 -7.7443 -7.8208 -7.0257 -6.2117
-5.7394 -5.5578 -4.8022 -4.0476 -2.9332 -1.1653
0.5601 2.3417 4.3790 5.7822 6.8499 7.9332
8.3300 8.1916 7.4864 6.8997 6.1901 5.3220
4.0304 3.0923 2.4207 2.2976 2.7407 2.7220
2.0973 1.8517 0.8695 0.0806 0.4006 0.9202
1.4736 1.5479 1.5768 1.6938 1.9039 2.0386
2.6437 3.1909 3.7098 3.5634 2.5892 0.8657
-1.0763 -3.0265 -4.3529 -5.0501 -5.8367 -5.6054
-4.8831 -4.8212 -4.4145 -3.5554 -2.6074 -1.0198
-0.3749 -0.0795 -0.1103 -0.4607 -0.6071 -0.0313
0.8797 1.7398 2.7820 3.7416 4.4601 4.7365
4.5755 4.1476 3.9797 3.5802 2.9776 1.8949
0.8048 -0.3099 -0.9066 -1.3950 -1.9930 -2.9186
-3.9351 -4.6120 -4.9344 -4.5725 -3.6910 -2.4354
-1.3671 -0.4085 0.2286 0.9055 1.3408 1.9130
2.7180 3.6862 4.2167 4.9701 5.2751 5.2098
4.9187 4.0074 3.1925 2.6091 2.4018 2.2982
2.4950 2.3035 3.1054 2.8921 1.9136 1.0508
-0.4563 -1.4532 -2.1540 -2.2747 -2.3418 -2.8549
-4.1577 -5.4138 -6.3880 -7.1834 -7.1053 -6.9837
-6.4468 -5.7618 -5.2357 -4.8520 -4.5905 -3.9462
-2.4603 -0.5278 0.9438 1.9074 1.7510 1.1154
0.5156 0.7678 1.5753 4.1178 5.8040 6.9224
8.2955 8.4845 9.1816 9.1577 9.3869 8.9603
7.7147 6.1805 4.0687 2.3797 1.3287 0.5704
0.2703 0.7535 1.4357 2.0715 2.3576 2.6741
2.8228 2.5547 2.3001 0.0710 -0.5505 -0.0387
-0.0415 0.7607 0.9615 0.8337 -0.2564 -1.0421
-0.8344 0.3695 1.6017 2.4730 2.8078 3.0684
2.8069 2.6287 2.2821 2.1390 2.5600 3.0672
3.4928 3.4051 3.5821 3.8028 4.5130 4.5257
4.1784 3.3448 2.3215 0.9338 -0.9700 -2.4258
-2.9761 -3.3738 -4.0423 -4.7083 -5.5065 -6.0226
-6.1025 -5.7338 -4.8952 -3.7737 -2.5539 -1.3503
-0.9115 -0.1208 0.9559 2.2684 3.7437 5.2452
6.4911 7.7439 8.6484 8.8244 8.7068 8.0107
7.3428 6.7940 6.4206 5.1280 3.8541 2.7879
1.4416 0.3608 -0.1930 -0.2085 0.2622 0.7921
1.1465 1.8216 2.6657 3.9256 4.8357 5.0780
4.2356 3.0099 1.8116 0.8477 0.4261 0.1152
0.1627 -0.1672 -0.5966 -1.2700 -1.8412 -1.8804
-1.5915 -1.1335 -0.7449 -0.3024 -0.0801 0.4395
1.2451 2.0433 2.7189 3.5482 4.0301 4.2739
4.9272 5.9256 6.9243 7.2153 6.4731 4.8653
2.7379 1.5937 1.5784 1.1845 1.2299 1.3800
1.3916 1.3350 1.9422 2.0793 1.5924 1.3200
0.6002 0.1512 -0.1799 0.0287 0.7961 1.5221
1.8309 2.0852 2.0619 1.8878 1.1674 0.1954
-0.7511 -1.5138 -1.8089 -1.6357 -1.0375 -0.7337
-0.9591 -1.6254 -2.5222 -3.8604 -4.2189 -4.0594
-3.3060 -2.7143 -2.7709 -3.0318 -3.1599 -3.3069
-3.8501 -4.0930 -4.4776 -4.3607 -4.1076 -3.5255
-3.0843 -2.9857 -3.3719 -3.6166 -4.1651 -4.1934
-4.2105 -4.1318 -2.7581 -2.0492 -1.6649 -1.8362
-2.1500 -2.4982 -2.1829 -1.5443 -0.3341 0.6634
1.2383 1.8098 2.4211 3.1409 3.5323 3.5609
3.1085 2.6885 2.1387 1.8393 2.0722 2.8753
3.0451 2.8828 2.0983 1.0100 -0.0465 -0.8005
-1.0592 -0.8434 -0.5875 -0.6702 -0.8453 -1.5726
-2.2734 -2.6723 -2.4640 -2.4357 -2.4410 -2.6276
-2.4522 -1.3757 -0.1488 0.9867 1.9453 2.5905
2.5846 2.5541 2.5516 3.0575 3.6234 3.7105
3.1847 1.9242 0.6273 -1.0943 -1.7392 -1.5893
-1.7013 -1.6475 -1.5906 -1.4320 -1.2946 -0.8509
-0.3842 0.7647 2.0604 2.9577 3.8150 4.3709
5.0581 5.8491 6.8761 7.4563 7.5629 7.0931
6.1728 4.6756 3.3769 2.2995 0.9062 0.8008
-0.0962 -1.7799 -2.6571 -3.7864 -4.1701 -4.1732
-3.7761 -2.7550 -2.6076 -2.3673 -2.6872 -3.2339
-3.9248 -4.7176 -5.5851 -6.0164 -6.7863 -6.8724
-6.2173 -7.0680 -6.9682 -7.1009 -6.9980 -6.4458
-6.1078 -5.6868 -4.9754 -4.7288 -4.5289 -4.4919
-5.1971 -5.8516 -6.5279 -6.5092 -6.4760 -7.1267
-7.9830 -8.4923 -9.2868 -10.0669 -10.5420 -10.6605
-10.8589 -10.4453 -8.8446 -6.6924 -4.6495 -3.0734
-2.0103 -1.4435 -1.0200 -0.6646 -0.1180 0.6127
1.6304 2.5333 3.1996 3.8156 4.4431 5.1395
5.9561 6.3593 6.3481 6.1221 5.6815 5.0217
3.9888 3.1508 2.6704 2.9966 3.4478 4.1589
4.7288 5.2266 6.1159 6.8988 7.9504 8.7025
9.4183 9.6263 9.8057 9.9005 9.2491 8.2467
7.1463 5.9983 4.6840 3.7749 3.1981 2.8732
2.7208 3.0230 3.5718 3.5566 3.2749 2.3866
1.3257 0.2501 -0.9612 -1.6304 -2.0735 -2.5430
-2.9966 -3.0000 -2.8324 -2.4192 -1.2171 0.2505
1.5598 2.7109 3.6496 4.8199 5.5957 5.9872
5.9452 5.3880 4.9008 4.5733 4.4776 4.3230
4.1424 3.7761 3.3110 2.5964 2.0806 1.7209
1.3984 0.8590 0.0014 -0.7178 -1.0104 -0.9289
-0.8552 -0.7859 -0.9457 -1.0943 -1.0125 -0.5953
0.0602 0.5685 0.4886 -0.1665 -1.1593 -1.9544
-2.3216 -2.3959 -2.4724 -2.8940 -3.3560 -3.5044
-3.2351 -2.2600 -0.7613 0.7511 1.8626 2.6645
3.0153 2.9232 2.8091 2.2504 1.1447 -0.2915
-1.7582 -3.1294 -3.6692 -3.6978 -3.5780 -3.2687
-2.9024 -2.7438 -3.0420 -3.7668 -4.5454 -5.2928
-5.5239 -5.3759 -4.9539 -4.5295 -4.5510 -3.7606
-3.0327 -2.1745 -1.4880 -0.9258 -0.5231 -0.1705
0.0608 -0.0194 -0.3394 -0.7395 -0.8505 -0.9771
-0.8310 -0.5549 0.1242 0.8142 1.9093 2.8648
3.3536 3.2839 3.0031 2.7849 2.9907 3.2140
3.2426 3.1020 2.6701 2.2463 1.5924 0.9588
0.0788 -0.6556 -1.3717 -2.0234 -3.1213 -4.5130
-6.2235 -8.3512 -10.2612 -11.5112 -11.8488 -11.4810
-10.7264 -9.7665 -8.6173 -7.2150 -5.5882 -4.1247
-2.9727 -2.2892 -1.5881 -0.8366 -0.0340 0.8596
1.8881 3.0370 3.8778 4.2149 3.8825 3.1571
2.4472 2.1014 2.3312 2.9425 3.5479 3.6978
3.3414 2.4236 1.3238 0.5698 0.2222 0.2060
0.3441 0.6565 1.3527 1.7762 1.7383 1.4059
0.5294 -0.5405 -1.5299 -2.1621 -2.7960 -2.9823
-3.0302 -2.8623 -2.2643 -1.6167 -0.8023 -0.1143
0.4548 0.9868 1.4855 1.4158 0.6718 -0.6037
-2.0256 -3.4067 -4.5690 -5.6233 -6.6783 -7.8036
-8.9705 -9.8427 -10.1701 -9.9929 -9.4627 -8.8266
-8.0206 -7.3465 -6.7166 -5.5111 -4.5935 -3.5342
-1.9161 -0.0434 2.3166 4.2802 5.5764 6.2941
6.6069 7.4461 8.8182 9.7818 10.0598 9.7917
8.8076 7.7107 6.1691 5.7817 6.1330 5.6445
5.4486 5.2571 5.2425 5.2845 4.7161 3.9910
3.2581 2.2053 1.3462 0.9118 0.6926 0.5465
0.6506 0.9171 1.5884 2.3185 3.0439 3.7653
4.1987 4.2991 3.8560 2.8779 1.4982 0.0002
-1.3841 -2.6990 -4.1386 -5.4573 -6.5736 -7.2700
-7.3714 -6.9274 -6.1208 -4.7748 -3.6685 -3.2746
-3.5199 -4.3706 -4.9741 -5.5046 -6.0515 -6.4495
-7.0194 -7.3711 -7.5763 -7.2694 -6.4964 -5.4533
-4.3541 -3.7562 -3.2864 -3.2083 -3.1651 -3.0128
-2.8750 -3.0299 -3.2904 -3.1045 -2.5638 -1.7892
-1.0536 -0.4625 -0.0670 0.2800 0.5437 0.8922
1.0679 0.9796 0.7666 0.4243 0.0064 -0.4979
-0.6515 -0.4059 0.0764 0.6370 1.2237 1.6447
1.6444 1.3313 0.9429 0.4765 0.3736 0.0580
-0.3801 -1.1531 -2.0803 -2.0137 -2.0349 -2.3573
-2.6539 -2.5432 -2.1502 -1.6014 -0.8788 -0.1379
0.2651 0.4035 0.6261 1.4090 2.7050 4.0420
5.1035 5.5553 5.6623 5.4909 5.4039 5.3467
5.2692 5.0022 4.4316 3.6253 2.6478 1.6295
0.7253 0.0369 -0.3397 -0.1761 0.5135 1.6226
2.8300 3.8812 4.6716 5.1977 5.4207 5.4543
5.4679 5.4959 5.2195 4.5454 3.7541 3.1179
2.7566 2.5004 2.0439 1.0110 -0.2240 -1.3586
-2.0081 -2.2634 -2.1984 -1.9736 -1.5137 -1.1173
-0.8431 -0.2653 0.0129 0.6880 1.6960 2.8524
3.8648 4.6057 5.0479 5.2556 5.1175 4.7264
4.5454 4.4251 4.5059 4.3029 4.1353 3.6288
2.6568 1.4749 0.2225 -0.5999 -0.8720 -0.7081
-0.6733 -0.8570 -1.4136 -1.8766 -2.0146 -2.0666
-1.8530 -1.6406 -1.7755 -2.1058 -2.3461 -2.4789
-2.2876 -2.1462 -2.1008 -1.8212 -1.5731 -1.3825
-1.3626 -1.7522 -2.1698 -2.3060 -2.3797 -2.0880
-1.5824 -1.0613 -0.4541 -0.2405 -0.2918 -0.6543
-1.4929 -2.5995 -3.9325 -5.0540 -5.6498 -5.9172
-5.6327 -4.9299 -4.1271 -3.1632 -2.8231 -3.1141
-3.6934 -4.5214 -5.2614 -5.4452 -5.2738 -4.9651
-4.2966 -3.6075 -2.9577 -2.6132 -2.3169 -2.0094
-1.3723 -0.6524 -0.4345 -0.4699 -0.6397 -0.8701
-1.0868 -1.0983 -1.3063 -0.9177 -0.0651 1.0033
2.0527 2.9332 3.7749 4.2332 4.6269 4.7637
4.9602 4.8125 4.3150 3.8315 3.5890 3.4058
3.4718 3.8334 4.3380 4.8849 4.9770 4.8554
4.3172 3.5912 2.7507 2.4746 2.5492 2.7460
3.1400 3.3185 3.1241 2.3216 1.6006 1.1227
0.8954 0.9734 1.5558 2.1515 2.4758 2.5355
2.3841 2.2168 2.1105 1.7934 1.2822 0.3282
-1.3925 -3.0637 -4.6787 -5.7045 -6.1146 -5.8817
-5.4930 -4.7054 -4.1685 -4.4794 -4.5832 -4.7375
-4.6227 -4.4293 -4.2617 -4.2020 -4.0705 -3.9953
-4.0155 -4.0264 -4.1933 -4.3379 -4.4583 -4.6759
-5.0098 -5.2203 -5.0332 -4.3022 -3.3439 -2.4832
-1.6987 -1.1120 -0.9715 -0.6440 -0.0837 0.5080
1.1463 1.8136 2.1693 2.1394 2.0505 1.7445
1.4230 0.9716 0.6031 0.8068 1.4199 1.9485
2.3400 2.7249 3.1605 3.4261 3.7550 4.3231
5.0858 5.8364 6.2515 6.5071 6.5612 6.5304
6.3305 6.1632 6.4990 6.9026 6.7956 6.1268
4.8212 3.0598 1.2573 -0.5825 -2.1194 -3.0208
-3.3858 -3.4253 -3.8886 -4.4057 -5.3478 -6.3652
-7.3683 -8.2578 -8.8974 -9.1664 -9.4232 -10.1203
-9.9714 -10.1760 -10.3781 -10.4981 -10.6408 -10.5429
-10.0762 -9.1135 -7.8940 -6.5695 -5.5596 -4.8836
-4.6743 -4.7636 -5.0820 -5.2626 -5.4063 -5.4728
-5.3690 -5.1749 -4.8587 -4.6809 -4.5814 -4.9035
-5.1081 -5.4187 -6.0639 -5.9949 -5.7194 -5.1299
-4.5745 -4.0525 -3.4322 -2.8246 -2.3380 -1.8560
-1.2814 -0.8057 -0.1574 0.7303 1.8313 2.9140
3.7028 4.0436 4.1275 4.0007 4.0669 4.3878
4.8514 5.3203 5.7316 6.0914 6.4011 6.6038
6.6455 6.4701 5.9533 5.0339 3.8368 2.6494
1.5704 0.7054 0.1927 0.0294 0.2222 0.4495
0.7844 0.9800 0.6106 -0.0716 -0.6736 -0.8014
-0.5784 -0.1947 0.1880 0.6886 1.2216 1.5039
1.4613 1.5365 1.7452 2.1699 2.6543 3.5710
4.5296 5.5143 6.2823 6.1362 5.9838 5.5749
5.0737 4.6008 4.3057 4.0001 3.8135 3.6969
3.8427 4.3912 4.8638 5.2615 5.3218 5.2718
5.2018 5.3122 5.6328 5.8358 5.8809 5.8346
5.9742 6.0982 6.3221 6.3877 6.3268 6.3818
6.5220 6.6277 6.4418 6.0783 5.4409 4.8330
3.9102 3.0225 2.1597 1.6217 1.4843 1.8465
2.3133 2.8148 3.0931 3.2140 2.9849 2.4180
1.8338 1.2312 0.8951 -0.3648 -0.5567 -0.8726
-1.8193 -2.1918 -2.1520 -1.9279 -1.7998 -1.7777
-1.8623 -2.2089 -2.4238 -2.3523 -2.7123 -2.9763
-3.4256 -3.6815 -3.9483 -4.1243 -4.3342 -4.5086
-4.3544 -3.6542 -2.8028 -2.2018 -1.8277 -1.7211
-1.4276 -1.1042 -1.1014 -1.5765 -2.1791 -2.9169
-3.6943 -4.4184 -4.8068 -4.8842 -4.9290 -4.6121
-3.7459 -2.9490 -2.1838 -1.2472 -0.9422 -1.3386
-1.9844 -2.4533 -2.8663 -3.1660 -3.1598 -3.0124
-2.9008 -3.1514 -3.5938 -4.0413 -4.2766 -4.1952
-3.7950 -3.6224 -3.6175 -3.8936 -3.7695 -3.2316
-3.1461 -2.4110 -1.2388 -0.3247 0.3205 1.1784
2.0822 2.9311 3.4336 3.9139 4.2476 4.0082
3.9926 3.8468 3.6879 3.7199 3.6350 3.6546
3.3157 2.8226 2.7818 2.7924 2.8241 2.6951
2.6646 2.6506 2.3524 1.8730 1.4856 1.2925
1.7228 2.4165 3.1002 3.6114 3.8978 3.9136
3.7081 3.4687 3.1982 2.7535 2.1848 1.5608
0.5786 0.0329 -1.1291 -1.4599 -1.3368 -1.6959
-1.4957 -1.2422 -1.0880 -0.6589 0.0404 0.7819
1.4831 1.6696 1.5347 1.3332 1.4066 1.4622
1.5095 1.3780 1.1320 0.6921 0.1678 -0.4360
-0.8968 -0.8259 -0.3937 0.1066 0.8721 1.3631
1.4772 1.5813 1.7523 1.9554 2.3251 2.6730
2.9289 3.3664 3.4053 3.8104 3.9143 3.7367
3.7485 3.8667 4.0719 4.2594 4.1341 3.5732
2.7641 1.7729 0.8469 0.1517 -0.2591 -0.5000
-0.7314 -1.2876 -1.9661 -2.6738 -3.2478 -3.7222
-4.0966 -4.3879 -4.5447 -4.5586 -4.4094 -4.3034
-4.2825 -4.2577 -4.2281 -4.3180 -4.7163 -5.2038
-5.8291 -6.3518 -6.7271 -6.9062 -7.0439 -7.0554
-6.9093 -6.6776 -6.3294 -5.7688 -4.8696 -3.9931
-3.1038 -2.6477 -2.0426 -2.0905 -2.1685 -1.7571
-1.8299 -1.5361 -1.6797 -1.8548 -2.2092 -2.9530
-3.2425 -3.2045 -3.1563 -2.9682 -2.4390 -1.5718
-0.6720 0.1713 1.1352 2.0241 2.6942 3.0346
3.1873 3.3928 3.6612 3.8987 4.1251 4.1151
3.8897 3.4578 2.7172 1.6948 0.6952 -0.1863
-0.8654 -1.3576 -1.8952 -2.4322 -2.8883 -3.2244
-3.1918 -2.8675 -2.3392 -1.5426 -0.7053 0.1890
0.9735 1.6566 2.2035 2.4837 2.6485 2.8263
3.1034 3.5200 3.7395 3.7765 3.6581 3.4759
3.4317 3.5113 3.9258 4.5492 5.0992 5.5473
5.9823 6.4269 6.9107 7.2434 7.4570 7.4530
7.3271 7.1079 6.5920 5.8144 4.9926 4.1015
3.1345 2.2943 1.8208 1.4753 1.1834 0.9999
0.6000 0.3037 -0.0414 -0.0032 0.3078 0.8743
1.5919 2.1311 2.1771 1.7483 1.2340 0.8062
0.6383 0.4300 0.1197 -0.5719 -0.9014 -1.7111
-2.4421 -2.4088 -2.2288 -1.7375 -1.1950 -0.5899
-0.1782 0.2586 0.6566 0.9735 0.9952 0.9390
0.8989 0.8625 0.7014 0.5901 0.4477 0.2717
0.0136 -0.3191 -0.0538 0.1461 0.5301 1.0018
1.3743 1.8428 2.2981 2.6168 2.7259 2.8111
2.9476 3.1391 3.1565 2.9302 2.5937 2.3882
2.2837 2.2570 2.2471 2.3668 2.6121 2.7340
2.5655 1.9868 1.1992 0.5397 0.2285 0.1878
0.3264 0.6420 1.0217 1.4396 1.7539 1.9607
2.0913 2.2654 2.1417 1.8447 1.8068 1.7536
1.9473 2.3422 2.7138 3.0732 3.1982 3.2759
3.5794 4.0763 4.8129 5.5212 5.8054 5.5625
4.8847 4.1176 3.4927 3.0592 2.7710 2.5275
2.6391 2.5443 2.1787 1.9831 1.8233 1.7577
1.5515 0.9607 0.0174 -0.9142 -1.8650 -2.7798
-3.5708 -4.1323 -4.2925 -4.2816 -4.1047 -3.8783
-3.7042 -3.3793 -2.9455 -2.4346 -1.7808 -1.0650
-0.6188 -0.5010 -0.4817 -0.3548 0.0286 0.5310
0.8329 0.7984 0.5774 0.2223 -0.0974 -0.2646
-0.2354 -0.1107 -0.2783 -0.8274 -1.7298 -2.7223
-3.6684 -4.5400 -5.2937 -5.9622 -6.5333 -6.9413
-7.1005 -7.0999 -6.9245 -6.6991 -6.4251 -6.2380
-6.1755 -6.1783 -6.1509 -5.9329 -5.5710 -5.1080
-4.5745 -4.0645 -3.5820 -3.2238 -3.0133 -2.9610
-3.0506 -3.2679 -3.5332 -3.5922 -3.4141 -3.0378
-2.4788 -1.7089 -0.8554 -0.0349 0.4396 0.6831
0.7963 0.9461 0.9598 0.9433 0.8939 0.7263
0.4319 0.1498 -0.0989 -0.2289 -0.2858 -0.3517
-0.4462 -0.6029 -0.7049 -1.0718 -1.3538 -1.7170
-1.7102 -2.2897 -2.4343 -2.2549 -2.3068 -2.1619
-1.7039 -0.8134 0.2848 1.4228 2.0751 2.6472
2.8074 3.0005 2.7548 2.6084 2.2645 2.7374
2.5387 2.3531 3.0533 2.9520 3.0819 3.0331
3.1034 3.3083 3.6289 3.6659 3.9314 4.0645
4.0990 4.1602 4.1609 4.0237 3.8067 3.4482
2.8767 2.2371 1.5064 0.9844 0.3053 -0.3187
-0.8812 -1.2633 -1.3383 -1.1365 -0.7186 -0.1636
0.3404 0.7785 1.1162 1.3541 1.6448 1.8239
1.8646 1.7558 1.6893 1.5839 1.3227 0.8684
0.3964 -0.0028 -0.3809 -0.6592 -0.8448 -0.8579
-0.8635 -0.9390 -1.1996 -1.2422 -1.4334 -1.2083
-1.2919 -1.4148 -1.0451 -1.3778 -1.5059 -1.5311
-1.5395 -1.7039 -1.8510 -1.9275 -1.6517 -1.3445
-1.3178 -1.5028 -1.9875 -2.5475 -3.0599 -3.0043
-2.6700 -2.2145 -1.6812 -1.1881 -0.7463 -0.4260
-0.3131 -0.0896 0.0569 0.1548 0.1203 -0.0653
-0.2276 -0.3402 -0.1617 -0.0240 0.2058 0.3094
0.4829 0.7024 1.0929 1.4589 1.9212 2.2418
2.3472 2.8422 2.7614 2.7667 2.7318 2.5664
2.5381 2.4697 2.4983 2.6053 2.8310 2.9657
3.0250 2.9582 2.6662 2.2026 1.7661 1.5534
1.5920 1.7552 1.9710 2.1557 2.2580 2.3855
2.6115 2.9116 3.1395 3.2041 3.1752 3.1472
3.1569 3.0620 2.9420 2.7160 2.4591 2.2008
2.3932 2.5108 2.4909 2.7178 2.8898 2.9890
2.8183 2.3497 2.0154 1.9523 1.7362 1.5736
1.2894 0.7901 -0.0000 -0.7941 -1.3373 -1.7608
-2.1445 -2.2453 -2.2272 -2.3084 -2.5730 -2.7997
-3.0192 -3.2365 -3.5714 -3.6479 -3.1790 -2.9166
-2.3727 -2.0142 -2.0945 -2.1430 -1.9940 -2.0534
-2.1153 -1.9412 -1.6386 -1.2978 -1.0332 -0.6085
-0.1182 0.3063 0.6971 1.2310 1.7303 2.0655
2.2804 2.1762 1.8957 1.4769 0.9791 0.6909
0.4648 0.6066 0.4350 0.0109 -0.3025 -0.7913
-0.8296 -0.6396 -0.7170 -0.9390 -1.7077 -2.6787
-3.2275 -3.5692 -3.7029 -3.6796 -3.8344 -4.2231
-4.7312 -5.1717 -5.2622 -5.3011 -5.2196 -4.9488
-4.4588 -3.9778 -3.6320 -3.1840 -2.5804 -2.0643
-1.8193 -1.6464 -1.4981 -1.4959 -1.5727 -1.5326
-1.5192 -1.5503 -1.6629 -1.7201 -1.8093 -1.9853
-2.2023 -2.3609 -2.4663 -2.6616 -2.7462 -2.6697
-2.6010 -2.8286 -3.1669 -3.4573 -3.5851 -3.6460
-3.6382 -3.5210 -3.3820 -3.4255 -3.6323 -3.8428
-3.9588 -4.0269 -4.1270 -4.2296 -4.4031 -4.5776
-4.8577 -5.1052 -5.4258 -5.6630 -5.9289 -6.0035
-6.3104 -6.4985 -6.6854 -6.6477 -6.5112 -6.3965
-5.5483 -5.4146 -5.0216 -4.6211 -4.4749 -4.0340
-3.4884 -2.8973 -2.3718 -1.8616 -1.5404 -1.4437
-1.5068 -1.5170 -1.4757 -1.3454 -1.2431 -1.1635
-1.0174 -0.7490 -0.5541 -0.4720 -0.5022 -0.5034
-0.3430 -0.0211 0.3336 0.7994 1.2882 1.7291
2.1622 2.4439 2.6976 2.9190 3.0658 3.0683
2.8898 2.6622 2.4215 2.2409 2.0845 2.0864
2.3845 2.8702 3.3553 3.7374 4.0275 4.2296
4.4075 4.4575 4.4463 4.4700 4.4457 4.3863
4.3397 4.3304 4.4482 4.6273 4.7268 4.6718
4.4109 3.9196 3.2244 2.4452 1.8382 1.4956
1.3249 1.1567 0.9098 0.6228 0.3713 0.1007
-0.0833 -0.1831 -0.1530 -0.0889 -0.1141 -0.1953
-0.2671 -0.2612 -0.1760 0.0149 0.3091 0.7487
1.0898 1.3495 1.4287 1.4238 1.3712 1.6209
1.5453 1.2966 1.3236 1.4200 1.4925 1.4763
1.7667 1.9564 2.3469 2.5860 2.8982 3.3599
3.6292 3.8074 3.7424 3.5698 3.5316 3.5254
3.5742 3.5791 3.3338 3.0089 2.5692 2.1604
1.7098 1.4322 1.2406 1.1781 1.2151 1.3669
1.5469 1.6091 1.5998 1.5795 1.6980 1.8473
2.1504 2.3280 2.4362 2.4722 2.3833 2.2804
2.2337 2.3615 2.6094 2.9337 3.3310 3.7439
3.9855 3.9703 3.6759 3.2654 2.7197 2.1150
1.5233 0.9965 0.5799 0.4331 0.4226 0.2469
-0.0914 -0.5407 -0.9791 -1.4321 -1.7599 -1.9411
-1.9965 -2.1221 -2.3478 -2.6199 -2.8615 -3.1025
-3.3509 -3.5089 -3.5630 -3.4585 -3.4178 -3.5176
-3.6777 -3.8726 -4.1289 -4.3928 -4.6478 -4.7081
-4.5856 -4.4351 -4.2196 -4.0272 -3.8388 -3.6320
-3.4930 -3.5552 -3.7103 -3.7707 -3.6855 -3.3285
-2.8525 -2.3003 -1.7092 -1.1284 -0.5936 -0.2313
0.0345 0.3974 0.8010 1.2133 1.5764 1.8554
2.0155 2.1128 2.1635 2.0904 2.0292 1.9552
1.8532 1.7279 1.6685 1.5236 1.2857 0.7736
0.1048 -0.8121 -1.6268 -2.3559 -2.9032 -3.3761
-3.6562 -3.7054 -3.6040 -3.4314 -3.3416 -2.7048
-2.5773 -2.2409 -1.7247 -1.3053 -0.9919 -0.7652
-0.7630 -0.8871 -1.0767 -1.2891 -1.2229 -1.0354
-0.8106 -0.7344 -0.5385 -0.7742 -0.8003 -0.7583
-0.5789 -0.1996 0.3054 0.7372 0.9944 1.1128
1.2179 1.5438 1.9197 2.4160 2.9091 3.3553
3.6277 3.7489 3.7794 3.8248 3.7810 3.6420
3.3883 3.1411 2.9557 2.8643 2.7048 2.4440
2.0792 1.6613 1.3112 1.0171 0.8302 0.7105
0.5840 0.4552 0.3113 0.1207 -0.1589 -0.3659
-0.5264 -0.5447 -0.6072 -0.5360 -0.3834 -0.1306
0.1288 0.3887 0.6318 0.7285 1.2466 1.1660
1.1439 1.4816 1.7011 1.5743 1.4291 1.3924
1.3737 1.4173 1.2441 1.1900 1.0619 1.1825
1.4278 1.7291 2.0590 2.4598 2.8516 3.1233
3.2878 3.3146 3.2900 3.2642 3.2396 3.1893
3.0798 3.0027 2.9928 3.1159 3.3416 3.5226
3.5509 3.3758 3.1081 2.7484 2.5279 2.3631
2.2400 2.0382 1.8252 1.5469 1.4042 1.3778
1.4188 1.4875 1.6135 1.7860 1.8575 1.9689
1.6526 1.4990 1.3426 1.1051 0.9108 0.5529
0.2771 0.2105 0.4717 0.8977 1.3772 1.8022
2.0911 2.1812 2.0307 1.7534 1.5295 1.3333
1.1300 0.8517 0.5886 0.3719 0.2205 0.1058
-0.0143 -0.1999 -0.3849 -0.5634 -0.6495 -0.7136
-0.6837 -0.6685 -0.6893 -0.6601 -0.4558 -0.0724
0.3181 0.9148 1.2180 1.2665 1.1785 0.9670
0.7466 0.5221 0.2329 -0.0077 -0.1648 -0.3177
-0.4452 -0.6324 -0.9421 -1.2378 -1.5067 -1.7636
-1.8991 -2.1000 -2.3913 -2.7483 -3.0502 -3.3425
-3.6596 -3.9926 -4.2796 -4.4248 -4.4379 -4.4494
-4.4351 -4.3807 -4.2544 -3.9684 -3.5922 -3.1845
-2.8254 -2.6273 -2.5412 -2.4529 -2.2931 -1.9259
-1.4197 -0.8796 -0.4399 -0.1250 0.0454 0.1369
0.2376 0.3952 0.6399 0.9216 1.2792 1.6060
1.8520 1.9620 1.9309 1.8485 1.7263 1.5852
1.4484 1.3856 1.3442 1.3112 1.2198 1.1026
1.0243 1.0448 1.1853 1.3877 1.6781 1.9888
2.2450 2.3569 2.2636 1.9235 1.4680 0.9652
0.4938 0.0262 -0.4704 -0.9284 -1.2763 -1.4868
-1.5434 -1.4595 -1.3171 -1.1625 -1.0870 -1.0957
-1.1890 -1.3777 -1.6370 -1.7999 -1.7458 -1.4741
-1.1019 -0.7558 -0.4710 -0.1949 0.1387 0.5485
0.7995 0.8856 0.8996 0.9195 0.8974 0.7696
0.7820 0.8601 1.0367 1.2463 1.4039 1.4680
1.3703 1.1505 0.7506 0.3477 -0.0055 -0.2381
-0.3174 -0.3165 -0.1591 -0.1358 -0.0450 0.1033
0.0336 0.0035 0.0793 0.2277 0.4298 0.6001
0.6157 0.5206 0.3747 0.3060 0.3520 0.4487
0.5635 0.6490 0.5933 0.3076 -0.1427 -0.6989
-1.2533 -1.7978 -2.3462 -2.8111 -3.1855 -3.4242
-3.5129 -3.5057 -3.4028 -3.3319 -3.3005 -3.2318
-3.2660 -3.3123 -3.2545 -3.1945 -3.0757 -3.0692
-3.1991 -3.3468 -3.6515 -3.9709 -4.1960 -4.2967
-4.2821 -4.1456 -3.9758 -3.7510 -3.6388 -3.6481
-3.6836 -3.7355 -3.7314 -3.7821 -3.7305 -3.5651
-3.2187 -2.8067 -2.2785 -1.9032 -1.6292 -1.3295
-1.0011 -0.6274 -0.3342 -0.0503 0.0775 0.1723
0.1428 0.1947 0.3502 0.4618 0.5669 0.7133
0.8274 0.9046 1.0028 1.1561 1.4201 1.7335
2.0140 2.1545 2.1660 1.9813 1.7407 1.5025
1.3666 1.4220 1.6380 1.8983 2.1296 2.2975
2.4269 2.5450 2.6396 2.7537 2.7963 2.7860
2.6352 2.4720 2.2055 1.9851 1.7459 1.6356
1.6060 1.3187 1.2198 1.0977 0.9204 0.7000
0.4693 0.2214 -0.0444 -0.3432 -0.7101 -1.0779
-1.3842 -1.6672 -1.8537 -1.9678 -2.0900 -2.1681
-2.2327 -2.2816 -2.3478 -2.3543 -2.3204 -2.2536
-2.1535 -2.0132 -1.9314 -1.8183 -1.7085 -1.5279
-1.3565 -1.1373 -0.9455 -0.5220 -0.0571 0.3822
1.0728 1.6974 2.2528 2.7105 3.1607 3.5410
3.9716 4.3136 4.5089 4.5045 4.3565 4.2856
4.3071 4.3174 4.3702 4.3870 4.3167 4.0898
3.7872 3.4181 3.0677 2.7098 2.4306 2.1778
1.9676 1.7357 1.4126 1.0457 0.5619 0.3915
-0.0892 -0.3846 -0.5773 -0.8814 -1.3211 -1.7458
-1.9877 -2.2380 -2.3894 -2.6690 -2.8540 -3.0101
-3.0903 -3.1882 -3.2666 -3.2703 -3.1512 -3.0353
-2.9075 -2.8328 -2.7197 -2.5434 -2.3297 -2.0322
-1.6976 -1.3910 -1.1728 -0.9660 -0.7825 -0.5895
-0.5758 -0.6289 -0.7903 -1.0680 -1.2592 -1.3372
-1.3201 -1.2785 -1.1961 -1.0220 -0.7723 -0.3594
0.1720 0.6387 0.9991 1.3057 1.6051 1.8734
2.0438 2.2071 2.4381 2.6390 2.7350 2.6909
2.5970 2.5329 2.5252 2.6026 2.8594 3.2195
3.5065 3.6734 3.7191 3.7698 3.8177 3.8519
3.9079 3.9918 4.1044 4.2222 4.2477 4.2098
4.1610 4.0888 4.1174 4.1709 4.3031 4.5381
4.7894 4.8599 4.7844 4.6805 4.7692 5.0723
5.3717 5.7200 6.0850 6.4715 6.7557 6.9379
6.9936 7.0029 6.9395 6.8589 6.6547 6.3518
5.8717 5.2237 4.8453 4.4455 3.9987 3.6128
3.1974 2.7848 2.3203 1.7814 1.1844 0.5619
0.0016 -0.4663 -0.7884 -1.0646 -1.3428 -1.5533
-1.6112 -1.5689 -1.5104 -1.5732 -1.8179 -2.2613
-2.8014 -3.3686 -3.8990 -4.3010 -4.6944 -5.0544
-5.3162 -5.4935 -5.5463 -5.5442 -5.6402 -5.7217
-5.8464 -5.9611 -6.0849 -6.0989 -6.0814 -6.0227
-5.9823 -5.8834 -5.7043 -5.5233 -5.4257 -5.3896
-5.3961 -5.4854 -5.1427 -4.9916 -4.9717 -4.8589
-4.8035 -4.7488 -4.7180 -4.7168 -4.6785 -4.5507
-4.3698 -4.0933 -3.8567 -3.7037 -3.6711 -3.7435
-3.8297 -3.8455 -3.8738 -3.8797 -3.9102 -3.9338
-3.9578 -3.9705 -3.9590 -3.8356 -3.5480 -3.1556
-2.8139 -2.5953 -2.4693 -2.4522 -2.4494 -2.4889
-2.5287 -2.4908 -2.3462 -2.1550 -1.9675 -1.8559
-1.7489 -1.5518 -1.2412 -0.8068 -0.3146 0.1689
0.5694 0.8436 0.9873 1.0560 1.1459 1.3359
1.6048 1.9095 2.2108 2.4978 2.7388 3.0037
3.3504 3.6663 3.8824 3.9278 3.8389 3.6660
3.5124 3.4844 3.5795 3.7017 3.8261 3.8659
3.8140 3.7247 3.6402 3.6598 3.6896 3.7192
3.6184 3.4692 3.3143 3.1871 3.0643 2.8719
2.7954 2.6719 2.5525 2.5476 2.4571 2.4241
2.4972 2.6365 2.8274 2.8831 2.8411 2.6499
2.3563 2.0665 1.7858 1.5591 1.3747 1.2233
1.1160 1.0529 0.9693 0.7737 0.4230 -0.0229
-0.4990 -0.9445 -1.3494 -1.7806 -2.2162 -2.6487
-3.0741 -3.4276 -3.6820 -3.8346 -3.8881 -3.8950
-3.8943 -3.9173 -3.9889 -4.1418 -4.3464 -4.5072
-4.5955 -4.6141 -4.5986 -4.5610 -4.5271 -4.5094
-4.5106 -4.4612 -4.3163 -4.0383 -3.7619 -3.5237
-3.3822 -3.3191 -3.3222 -3.3549 -3.4360 -3.4851
-3.4699 -3.6518 -3.7084 -3.8293 -4.1002 -4.4409
-4.7631 -4.9764 -5.1937 -5.3837 -5.5239 -5.5134
-5.4443 -5.3849 -5.3486 -5.3445 -5.2559 -5.0417
-4.7419 -4.3312 -3.8778 -3.3968 -2.8452 -2.2722
-1.6786 -1.0816 -0.5139 -0.0282 0.4049 0.8517
1.3066 1.8069 2.2572 2.6309 2.9477 3.2584
3.5889 3.9570 4.2928 4.5960 4.7564 4.7798
4.7334 4.6812 4.6010 4.5776 4.6436 4.7990
4.9309 4.9131 4.7424 4.4732 4.2910 4.1308
4.1327 4.0351 3.9894 3.7465 3.7120 3.5000
3.0905 3.0407 2.8706 2.8097 2.6695 2.5417
2.4403 2.4086 2.2830 2.1138 1.8514 1.5143
1.2146 0.9550 0.7495 0.5626 0.3409 0.1350
-0.0450 -0.1445 -0.1544 -0.2374 -0.2965 -0.4019
-0.4619 -0.5363 -0.5313 -0.5058 -0.4526 -0.3799
-0.2673 -0.0723 0.2202 0.5859 0.9304 1.3048
1.6540 2.0019 2.3169 2.6598 2.9869 3.2525
3.4754 3.6775 3.7997 3.8582 3.8268 3.7095
3.5351 3.3066 3.0606 2.8032 2.5802 2.4515
2.4624 2.5047 2.5190 2.4745 2.3787 2.2320
2.0504 1.8427 1.6552 1.5162 1.3974 1.2513
1.0896 0.8679 0.6661 0.4077 0.2386 0.2321
0.2346 0.3546 0.3770 0.5085 0.6916 0.6994
0.7728 0.8574 0.8760 1.0141 1.1322 1.3011
1.3878 1.3946 1.5501 1.6027 1.6002 1.5507
1.4668 1.4145 1.3695 1.2140 1.0570 0.9093
0.7899 0.7566 0.7631 0.7933 0.7252 0.5523
0.3726 0.1696 0.0007 -0.0406 0.0026 0.0287
-0.1348 -0.3808 -0.5717 -0.6867 -0.7984 -0.8864
-0.9364 -0.9383 -0.9364 -0.9488 -0.8885 -0.8089
-0.8577 -1.0745 -1.2763 -1.3758 -1.3602 -1.2672
-1.1500 -1.1133 -1.1649 -1.2672 -1.3002 -1.1942
-0.9843 -0.7558 -0.5658 -0.4663 -0.4787 -0.5232
-0.6068 -0.6196 -0.6174 -0.5275 -0.3310 -0.1824
0.0253 0.3527 0.6326 0.8595 1.0237 1.1189
1.2062 1.3626 1.5336 1.5703 1.5259 1.3138
1.0887 0.8263 0.5007 0.2694 0.0570 -0.2859
-0.6217 -0.8919 -1.1133 -1.3832 -1.7221 -2.0172
-2.2669 -2.4102 -2.6055 -2.6720 -2.6848 -2.7299
-2.7700 -2.8440 -3.0327 -3.3079 -3.4801 -3.5243
-3.4627 -3.3890 -3.3318 -3.2398 -2.9886 -2.5918
-2.1043 -1.5449 -1.0023 -0.5129 -0.0443 0.3359
0.6176 0.8863 1.1689 1.3194 1.3586 1.2762
1.2112 1.3228 1.4858 1.6835 1.8635 1.9211
1.9786 2.0004 2.0066 2.0255 2.1123 2.3041
2.5812 2.8638 3.0749 3.2643 3.4222 3.5961
3.7226 3.9225 4.0833 4.2210 4.2496 4.3174
4.3025 4.2972 4.2468 4.1234 3.9574 3.7046
3.4310 3.1225 2.8672 2.5215 2.4807 2.3533
2.1185 1.8468 1.4341 0.9594 0.4852 0.0368
-0.3596 -0.7122 -1.1478 -1.4538 -1.5943 -1.7607
-1.8897 -2.1484 -2.1441 -2.3241 -2.4422 -2.0452
-2.1388 -2.1363 -2.1030 -2.0924 -1.9426 -1.7666
-1.6117 -1.4370 -1.2610 -1.1245 -1.0437 -1.0760
-1.1556 -1.3313 -1.4933 -1.6282 -1.7964 -1.8760
-1.8897 -1.9715 -2.0082 -2.0772 -2.1043 -2.1469
-2.1500 -2.0461 -1.9951 -1.9814 -2.0035 -2.1282
-2.2942 -2.4917 -2.6244 -2.6779 -2.6428 -2.5228
-2.3909 -2.2759 -2.2977 -2.4917 -2.7494 -3.0128
-3.2149 -3.3132 -3.3219 -3.2758 -3.2320 -3.1704
-3.1269 -3.0311 -2.9447 -2.8328 -2.7637 -2.6997
-2.6235 -2.4808 -2.2837 -2.1061 -1.9510 -1.8390
-1.7162 -1.5368 -1.3356 -1.1609 -0.9995 -0.9407
-0.9358 -1.0272 -1.0828 -1.0782 -0.9159 -0.6600
-0.3040 0.0350 0.3101 0.4958 0.4479 0.4236
0.3792 0.3621 0.4047 0.4678 0.5797 0.6749
0.8222 0.9740 1.1649 1.2672 1.2921 1.2233
1.0822 1.1238 0.8782 0.7566 0.7703 0.7731
0.8166 0.8179 0.8990 1.0253 1.2261 1.3953
1.5495 1.5831 1.5881 1.5315 1.4833 1.4880
1.5405 1.5834 1.5713 1.4615 1.3089 1.2122
1.2038 1.2607 1.3023 1.2830 1.1661 1.0135
0.8471 0.7405 0.7473 0.8443 0.9528 1.0427
1.0685 1.0928 1.1282 1.1811 1.2675 1.3599
1.4814 1.6245 1.7373 1.7588 1.6947 1.6148
1.6064 1.7236 1.9369 2.1785 2.3778 2.4780
2.4829 2.3884 2.2619 2.1742 2.1661 2.2280
2.3194 2.4002 2.3903 2.3113 2.1984 2.0905
1.9525 1.7622 1.5327 1.3014 1.0551 0.8030
0.5384 0.2153 -0.1006 -0.3829 -0.5555 -0.6792
-0.7225 -0.6736 -0.5564 -0.4174 -0.2924 -0.2290
-0.2076 -0.2132 -0.2837 -0.3484 -0.4324 -0.4193
-0.3683 -0.2719 -0.1833 -0.1528 -0.1494 -0.2032
-0.2561 -0.2927 -0.3067 -0.3534 -0.3929 -0.4177
-0.4491 -0.4899 -0.5850 -0.6547 -0.6596 -0.6481
-0.6898 -0.8248 -1.0592 -1.3322 -1.5442 -1.7345
-1.8717 -1.9301 -1.9217 -1.8860 -1.8244 -1.7843
-1.7992 -1.8965 -2.0343 -2.1484 -2.2267 -2.3182
-2.4326 -2.5859 -2.7622 -2.9587 -3.1651 -3.3060
-3.3632 -3.2587 -3.1344 -3.0162 -2.9910 -2.9888
-2.9683 -2.9189 -2.8595 -2.7323 -2.5834 -2.3903
-2.0259 -1.6605 -1.2958 -1.0427 -0.8816 -0.7943
-0.7187 -0.6450 -0.5698 -0.5539 -0.5493 -0.4731
-0.3792 -0.2231 -0.0953 -0.0350 0.0480 0.1363
0.3052 0.4967 0.6205 0.7700 0.8938 1.0007
1.1077 1.2377 1.3819 1.5079 1.6151 1.7821
1.9696 2.2103 2.3757 2.4385 2.5265 2.5986
2.7137 2.8066 2.9074 3.0025 3.0781 3.1431
3.1947 3.2174 3.1928 3.1829 3.2043 3.2562
3.2957 3.3023 3.3144 3.3097 3.3368 3.4518
3.5575 3.6496 3.6984 3.6962 3.6912 3.6844
3.6940 3.6965 3.7177 3.7960 3.8831 3.9922
4.0858 4.1321 4.1707 4.1682 4.1418 4.0476
3.8902 3.6968 3.4711 3.2242 2.9714 2.7880
2.6456 2.5035 2.3104 2.0557 1.7554 1.4933
1.3083 1.1811 1.1313 1.1323 1.1348 1.1065
1.0219 0.8726 0.6736 0.4252 0.1923 -0.0371
-0.2567 -0.4550 -0.6774 -0.9379 -1.1932 -1.4709
-1.7289 -1.8978 -2.0004 -2.0486 -2.1173 -2.1879
-2.3029 -2.4826 -2.6589 -2.8340 -2.9596 -2.9683
-2.9481 -2.9335 -2.9422 -3.0153 -3.0865 -3.1629
-3.2550 -3.3679 -3.5448 -3.7948 -4.0914 -4.3924
-4.6377 -4.8187 -4.9521 -5.0173 -5.0149 -4.9489
-4.8414 -4.7291 -4.6113 -4.4748 -4.3436 -4.2540
-4.2428 -4.2963 -4.3666 -4.4138 -4.3927 -4.2801
-4.0482 -3.7459 -3.4235 -3.1480 -2.9083 -2.7084
-2.5572 -2.3974 -2.2485 -2.1014 -1.9587 -1.7924
-1.6046 -1.3521 -1.0971 -0.8875 -0.6929 -0.5959
-0.5595 -0.5293 -0.5614 -0.6248 -0.6997 -0.8269
-0.9364 -1.0166 -1.0533 -1.0607 -1.1366 -1.2485
-1.3605 -1.4167 -1.4111 -1.3598 -1.2837 -1.2370
-1.2196 -1.2538 -1.2927 -1.3061 -1.3029 -1.3113
-1.3132 -1.3297 -1.3291 -1.3278 -1.3449 -1.3801
-1.4357 -1.5414 -1.6503 -1.6652 -1.5651 -1.4006
-1.2824 -1.2261 -1.2053 -1.1409 -1.0393 -0.8564
-0.5956 -0.2542 0.0726 0.4119 0.7271 1.0396
1.2669 1.4361 1.5744 1.7056 1.9152 2.0778
2.2572 2.3471 2.4056 2.4186 2.4108 2.4466
2.4659 2.3832 2.3266 2.2038 2.0405 1.8776
1.6335 1.4585 1.2738 1.0850 0.9812 0.9308
0.8266 0.7613 0.7523 0.7284 0.7141 0.6531
0.4939 0.2881 0.0409 -0.2346 -0.4678 -0.6288
-0.7212 -0.7405 -0.7187 -0.6512 -0.6167 -0.6714
-0.8449 -0.9479 -1.0424 -1.0999 -1.1313 -1.1783
-1.1820 -1.2137 -1.1761 -1.1444 -1.0679 -1.0915
-1.1319 -1.1002 -1.1102 -1.2442 -1.2370 -1.2740
-1.4310 -1.4167 -1.3981 -1.3555 -1.2330 -1.0983
-0.9628 -0.8480 -0.8086 -0.6655 -0.5760 -0.3676
-0.1531 -0.1217 -0.0138 0.0661 0.1457 0.2449
0.2915 0.2856 0.2949 0.2713 0.3180 0.4641
0.6466 0.8487 0.9656 1.0583 1.1208 1.2545
1.4103 1.5984 1.7787 1.9942 2.1397 2.2725
2.3692 2.5113 2.7401 2.8259 3.2731 3.5171
3.6145 3.8156 3.8990 3.9248 3.9164 3.7905
3.5681 3.4046 3.2186 3.1913 3.2538 3.3701
3.4879 3.5545 3.5321 3.4375 3.2706 3.1260
2.9935 2.8738 2.7774 2.6829 2.6130 2.5418
2.4889 2.4550 2.4671 2.5418 2.6652 2.7268
2.7006 2.5688 2.4021 2.2405 2.1319 2.0928
2.0567 1.9948 1.8829 1.7277 1.6015 1.5664
1.6450 1.7669 1.8757 1.9777 2.0203 2.0402
2.0163 1.9482 1.8512 1.7551 1.6460 1.5154
1.3705 1.1982 1.0443 0.9206 0.8002 0.6367
0.4084 0.1233 -0.1742 -0.4802 -0.7339 -0.9481
-1.1288 -1.3325 -1.5750 -1.8760 -2.1692 -2.4434
-2.6645 -2.8451 -2.9328 -2.9760 -3.0292 -3.0920
-3.2161 -3.3684 -3.5877 -3.7714 -3.9222 -3.9785
-4.0553 -4.0177 -3.9757 -3.7938 -3.7207 -3.5099
-3.2484 -3.2671 -3.0093 -2.7102 -2.3986 -2.0457
-1.6484 -1.3169 -1.0150 -0.8723 -0.8070 -0.7358
-0.6870 -0.6039 -0.5259 -0.4575 -0.3941 -0.3250
-0.2150 -0.0247 0.1790 0.4097 0.6659 0.9140
1.1973 1.4625 1.7072 1.8667 2.0443 2.1089
2.2713 2.3589 2.4964 2.7958 2.6680 2.8480
2.9450 2.9736 3.0218 3.0007 2.9578 2.8533
2.7233 2.5567 2.4628 2.3300 2.2908 2.2700
2.2793 2.2492 2.2184 2.1665 2.2224 2.2635
2.3023 2.2927 2.2417 2.1755 2.0934 2.0639
2.0862 2.1680 2.2495 2.3527 2.4183 2.4945
2.5169 2.4805 2.4258 2.4137 2.4040 2.4140
2.4177 2.3907 2.2977 2.1351 1.9168 1.6429
1.3350 0.9874 0.6569 0.3441 0.0521 -0.2423
-0.5716 -0.9484 -1.3589 -1.7706 -2.1418 -2.4798
-2.7969 -3.1359 -3.4714 -3.7593 -3.9968 -4.1843
-4.3457 -4.4763 -4.5895 -4.7191 -4.8544 -4.9909
-5.0916 -5.0969 -5.0708 -5.0241 -4.9875 -4.9697
-4.9439 -4.9122 -4.8136 -4.6778 -4.5354 -4.4567
-4.4477 -4.4359 -4.3690 -4.2437 -4.0693 -3.8513
-3.5957 -3.3010 -2.9819 -2.6045 -2.2024 -1.8181
-1.5143 -1.3104 -1.2099 -1.1372 -1.0358 -0.8853
-0.6814 -0.4024 -0.0520 0.3317 0.7524 1.1724
1.5459 1.8885 2.1920 2.3994 2.6173 2.8375
3.1164 3.3884 3.5874 3.7317 3.8185 3.8632
3.8993 3.9416 4.0212 4.1546 4.2852 4.4030
4.4490 4.4748 4.5059 4.5585 4.5958 4.6502
4.6978 4.7883 4.8741 4.9835 5.0448 5.1493
5.1670 5.1318 5.2086 5.0569 4.9518 4.8312
4.7199 4.6443 4.5345 4.3738 4.2429 4.0796
3.9298 3.8247 3.7700 3.7373 3.6866 3.6055
3.4503 3.4236 3.1291 3.1186 3.1403 2.8530
2.6904 2.4597 2.2853 2.1469 1.9550 1.7501
1.4877 1.1158 0.6980 0.2667 -0.2006 -0.6773
-1.1061 -1.5277 -1.9226 -2.2969 -2.6281 -2.9661
-3.2686 -3.5108 -3.7841 -4.0674 -4.2782 -4.4446
-4.6003 -4.7284 -4.8422 -4.9486 -5.0543 -5.1134
-5.1669 -5.2247 -5.2797 -5.3338 -5.3693 -5.3599
-5.3043 -5.2200 -5.1525 -5.0885 -5.0403 -4.9691
-4.8500 -4.7378 -4.5487 -4.2885 -4.0683 -3.9163
-3.8351 -3.8261 -3.8566 -3.8886 -3.8507 -3.7823
-3.6685 -3.5270 -3.4014 -3.3457 -3.3274 -3.2730
-3.1878 -3.0749 -2.9648 -2.8265 -2.6993 -2.5538
-2.4767 -2.3961 -2.3666 -2.2945 -2.1866 -1.9795
-1.6931 -1.4015 -1.1664 -1.0787 -1.0712 -1.2895
-1.1409 -1.0028 -0.9739 -0.7740 -0.5694 -0.3154
-0.0980 0.1140 0.2331 0.4023 0.5484 0.7284
0.9200 1.0229 1.0736 1.0823 1.1625 1.1532
1.3329 1.5779 1.6071 1.6615 1.6696 1.7094
1.7865 1.8699 1.9215 1.9722 2.0001 2.0110
2.0667 2.1481 2.2794 2.4037 2.5051 2.5222
2.4470 2.3409 2.1960 2.0306 1.8307 1.5882
1.3652 1.1578 0.9871 0.8404 0.7259 0.6320
0.5403 0.4150 0.2412 0.0425 -0.1428 -0.2809
-0.3947 -0.4792 -0.5274 -0.5277 -0.4889 -0.4285
-0.3533 -0.2802 -0.2103 -0.1478 -0.1052 -0.0660
-0.0206 0.0506 0.1389 0.2508 0.3752 0.4735
0.5335 0.5574 0.5832 0.6330 0.7210 0.8366
0.9526 1.0661 1.1491 1.1998 1.2427 1.2741
1.2872 1.2990 1.3018 1.2915 1.2766 1.2390
1.1812 1.1162 1.1028 1.1476 1.2253 1.3012
1.3295 1.3155 1.2604 1.1933 1.1358 1.0866
1.0499 1.0251 1.0391 1.1022 1.1836 1.2931
1.3929 1.4392 1.4629 1.4806 1.5114 1.5428
1.5903 1.6544 1.7088 1.7555 1.7735 1.7778
1.8005 1.8767 1.9992 2.1115 2.1780 2.1780
2.1572 2.1783 2.2595 2.3671 2.4482 2.4759
2.4196 2.3179 2.2066 2.1102 2.0487 2.0129
1.9532 1.8885 1.8092 1.6830 1.5123 1.2959
1.0580 0.7891 0.5099 0.2481 0.0257 -0.1356
-0.2625 -0.3810 -0.5383 -0.7364 -0.9304 -1.1387
-1.2593 -1.3337 -1.3610 -1.4080 -1.4705 -1.5864
-1.7034 -1.7932 -1.8467 -1.8709 -1.9170 -1.9350
-2.0037 -2.0364 -2.1828 -2.1897 -2.2935 -2.4524
-2.4459 -2.5659 -2.7273 -2.9241 -3.0603 -3.1868
-3.2754 -3.3802 -3.4614 -3.5313 -3.6370 -3.7393
-3.9085 -4.0727 -4.2294 -4.3410 -4.4162 -4.4336
-4.4249 -4.3537 -4.3251 -4.3031 -4.3568 -4.4050
-4.4480 -4.4890 -4.3463 -4.4296 -4.3603 -4.2123
-4.1221 -4.0322 -3.9623 -3.8335 -3.6989 -3.5291
-3.3532 -3.1511 -2.9337 -2.6598 -2.3492 -1.9810
-1.6073 -1.1928 -0.8231 -0.4736 -0.1764 0.1147
0.3824 0.6081 0.7916 0.9399 1.0531 1.1103
1.1407 1.1538 1.2116 1.2779 1.3957 1.5291
1.6821 1.8149 1.9178 2.0014 2.0767 2.1849
2.3288 2.5169 2.7172 2.9006 3.0517 3.1677
3.2924 3.3879 3.4513 3.4410 3.4102 3.4068
3.4174 3.4740 3.4908 3.4992 3.4982 3.5113
3.5178 3.5337 3.5573 3.5648 3.5642 3.5113
3.4392 3.3468 3.3076 3.3176 3.3863 3.4768
3.5666 3.6484 3.6941 3.6932 3.6624 3.5819
3.4199 3.3478 3.2259 3.1065 3.0434 2.9230
2.7756 2.5990 2.4025 2.2101 2.0198 1.8096
1.5661 1.2919 1.0378 0.7962 0.5938 0.3864
0.2111 0.0575 -0.0697 -0.2043 -0.3567 -0.5482
-0.7506 -0.9857 -1.2522 -1.5047 -1.7590 -1.9440
-2.1691 -2.2926 -2.3722 -2.4698 -2.5273 -2.5873
-2.6719 -2.7400 -2.7829 -2.8295 -2.8693 -2.9483
-3.0282 -3.1084 -3.1905 -3.2490 -3.2449 -3.2300
-3.1880 -3.1884 -3.1911 -3.2079 -3.2250 -3.1831
-3.0951 -2.8973 -2.6703 -2.4085 -2.1629 -1.9511
-1.7957 -1.6921 -1.6620 -1.6875 -1.7360 -1.8174
-1.9067 -2.0273 -2.1436 -2.2341 -2.2807 -2.2820
-2.2406 -2.1651 -2.0519 -1.9011 -1.7518 -1.6321
-1.5373 -1.4630 -1.3700 -1.2652 -1.1763 -1.0955
-1.0361 -1.0100 -0.9922 -0.9813 -0.9655 -0.9503
-0.9226 -0.8878 -0.8536 -0.8007 -0.7227 -0.6396
-0.5715 -0.5268 -0.4879 -0.4559 -0.4117 -0.3427
-0.2379 -0.1123 0.0289 0.1834 0.2885 0.3473
0.3317 0.3124 0.2869 0.3112 0.3426 0.3840
0.3858 0.3768 0.3572 0.3967 0.4819 0.6380
0.8012 0.9278 1.0124 1.0506 1.0895 1.1000
1.1799 1.1719 1.3360 1.1184 1.1579 1.2897
1.0783 1.1669 1.1383 1.1324 1.1206 0.9903
0.8438 0.7372 0.6234 0.6075 0.6224 0.6464
0.6703 0.7331 0.8056 0.9657 1.1529 1.3370
1.4968 1.5776 1.6865 1.7670 1.8646 1.9800
2.1155 2.2237 2.3077 2.3354 2.3817 2.4209
2.4650 2.5415 2.6388 2.7523 2.8711 2.9890
3.0763 3.1500 3.2302 3.3419 3.4320 3.5085
3.5651 3.6233 3.6764 3.7109 3.7535 3.7731
3.7507 3.7103 3.6848 3.6976 3.7784 3.8807
3.9743 4.0387 4.0561 4.0570 4.0666 4.0757
4.0875 4.0626 3.9902 3.8726 3.7585 3.6581
3.5754 3.4998 3.3870 3.3021 3.2228 3.2088
3.1407 3.0959 3.0260 2.9398 2.8528 2.7004
2.5857 2.4103 2.2362 2.0276 1.8410 1.6588
1.4716 1.2508 1.0609 0.9004 0.7779 0.6797
0.5662 0.5040 0.4169 0.2972 0.1380 -0.0122
-0.1841 -0.3402 -0.4966 -0.6402 -0.7929 -0.9764
-1.1691 -1.3750 -1.5519 -1.7148 -1.8725 -2.0211
-2.1996 -2.4026 -2.6451 -2.9082 -3.1781 -3.4672
-3.7853 -4.0938 -4.3680 -4.5757 -4.7187 -4.8356
-4.9361 -5.0387 -5.1127 -5.2206 -5.3275 -5.4336
-5.5101 -5.5869 -5.6273 -5.6805 -5.7286 -5.8285
-5.9280 -6.0685 -6.1618 -6.2336 -6.2087 -6.1164
-5.9681 -5.6466 -5.6046 -5.4211 -5.2961 -5.2551
-5.2249 -5.1935 -5.1273 -5.0188 -4.8994 -4.8229
-4.7464 -4.7626 -4.8276 -4.9479 -5.0692 -5.1851
-5.2125 -5.2765 -5.2511 -5.3254 -5.2930 -5.3981
-5.3698 -5.3185 -5.4444 -5.2187 -4.9855 -4.7504
-4.4706 -4.2374 -4.1090 -4.0201 -4.0107 -3.9392
-3.8627 -3.7552 -3.5686 -3.3764 -3.2182 -3.0441
-2.8774 -2.6778 -2.4698 -2.2639 -2.0332 -1.8466
-1.6806 -1.5276 -1.3296 -1.1411 -0.9092 -0.6651
-0.4260 -0.2040 0.0420 0.3168 0.6361 0.9676
1.3031 1.6327 1.9449 2.2365 2.4837 2.7209
2.9405 3.1475 3.3350 3.5182 3.7358 3.9924
4.2542 4.5206 4.7719 5.0408 5.3135 5.5632
5.8032 6.0420 6.2821 6.5286 6.7541 6.9397
7.0641 7.1213 7.1175 7.0836 7.0423 7.0056
6.9894 6.9695 6.9509 6.9325 6.8822 6.8016
6.7034 6.5958 6.5237 6.4475 6.3806 6.3041
6.2488 6.2143 6.1826 6.1490 6.0958 6.0168
5.8984 5.7690 5.6425 5.5293 5.4202 5.3297
5.2149 5.1024 4.9789 4.8434 4.6795 4.4808
4.2492 4.0029 3.7747 3.5891 3.4165 3.2225
3.0306 2.8040 2.5527 2.2813 2.0210 1.7916
1.6038 1.4408 1.3022 1.1753 1.0565 0.9123
0.7353 0.5133 0.2699 0.0193 -0.2161 -0.4307
-0.6418 -0.8342 -1.0326 -1.2192 -1.4020 -1.5684
-1.7111 -1.8205 -1.8955 -1.9337 -1.9978 -2.0845
-2.2157 -2.3945 -2.5854 -2.7720 -2.9467 -3.1255
-3.3012 -3.4759 -3.6441 -3.8002 -3.9576 -4.1158
-4.2573 -4.3322 -4.3210 -4.2564 -4.1637 -4.1202
-4.1084 -4.1326 -4.1404 -4.1149 -4.0154 -3.9321
-3.8612 -3.7645 -3.7694 -3.8058 -3.8515 -3.8795
-3.8804 -3.8525 -3.8239 -3.7999 -3.7757 -3.7331
-3.6874 -3.6267 -3.5366 -3.4532 -3.3898 -3.3453
-3.2925 -3.2082 -3.0761 -2.9221 -2.7794 -2.6653
-2.5677 -2.4812 -2.3681 -2.2325 -2.0910 -1.9744
-1.8566 -1.7307 -1.6022 -1.4679 -1.3218 -1.1669
-1.0214 -0.8834 -0.7683 -0.6617 -0.5479 -0.4030
-0.2506 -0.0964 0.0351 0.1337 0.1918 0.2245
0.2643 0.3125 0.3625 0.4002 0.4294 0.4319
0.4120 0.3915 0.3980 0.4673 0.5765 0.7204
0.8656 1.0251 1.1999 1.3625 1.5114 1.6044
1.6654 1.6927 1.7356 1.7807 1.8491 1.9281
2.0092 2.0916 2.1871 2.2751 2.3040 2.3357
2.3650 2.4116 2.4831 2.5646 2.6271 2.6513
2.6212 2.5801 2.5158 2.4529 2.4203 2.3870
2.3671 2.3587 2.3581 2.3783 2.3873 2.3976
2.4020 2.4016 2.4153 2.4256 2.4427 2.4436
2.4582 2.4620 2.4775 2.4974 2.5257 2.5366
2.5207 2.4903 2.4551 2.4265 2.3855 2.3370
2.2701 2.2030 2.1240 2.0602 2.0108 1.9806
1.9657 1.9573 1.9452 1.9222 1.8793 1.8174
1.7499 1.6912 1.6243 1.5643 1.5146 1.4636
1.4004 1.3202 1.2080 1.0556 0.8877 0.7105
0.5354 0.3622 0.2093 0.0659 -0.0799 -0.2307
-0.3675 -0.5018 -0.6228 -0.7733 -0.9219 -1.0708
-1.1818 -1.2618 -1.3289 -1.4051 -1.5058 -1.5988
-1.6566 -1.7079 -1.7642 -1.8152 -1.8976 -1.9598
-2.0500 -2.1345 -2.3326 -2.3597 -2.5328 -2.8006
-2.8267 -2.9423 -2.9952 -3.0739 -3.0922 -3.1615
-3.1799 -3.2427 -3.2713 -3.2617 -3.3030 -3.2387
-3.2722 -3.2054 -3.2865 -3.0919 -3.0676 -3.1985
-3.0266 -2.9812 -2.9001 -2.8901 -2.8752 -2.9464
-2.8848 -2.9172 -2.9134 -2.7869 -2.6967 -2.5083
-2.3466 -2.1961 -2.0776 -1.9934 -1.9287 -1.7829
-1.6601 -1.4785 -1.3196 -1.1753 -1.0310 -0.9359
-0.8299 -0.7310 -0.6206 -0.4925 -0.3532 -0.2005
-0.0152 0.1667 0.3162 0.4462 0.5970 0.7798
0.9906 1.2242 1.4499 1.6246 1.7649 1.8787
1.9657 2.0211 2.0951 2.1803 2.2453 2.3441
2.4869 2.6330 2.8006 2.9834 3.1522 3.3494
3.5322 3.6920 3.8276 3.9128 3.9921 4.0648
4.1248 4.1656 4.2209 4.3018 4.4292 4.6052
4.7968 5.0150 5.2377 5.4749 5.7084 5.9112
6.0449 6.1220 6.1661 6.1842 6.1773 6.1475
6.1061 6.0545 5.9995 5.9298 5.8794 5.8250
5.7523 5.6605 5.5471 5.4289 5.3288 5.2451
5.1711 5.0760 4.9578 4.8005 4.6083 4.3978
4.1771 3.9532 3.7110 3.4694 3.1930 2.8858
2.5484 2.2241 1.8914 1.5693 1.2478 0.9443
0.6514 0.3536 0.0426 -0.2357 -0.5074 -0.8037
-1.1112 -1.4225 -1.6958 -1.9427 -2.1700 -2.3945
-2.5773 -2.7514 -2.9047 -3.0564 -3.1643 -3.3098
-3.4311 -3.6018 -3.7476 -3.9364 -4.0922 -4.2765
-4.4336 -4.6074 -4.7681 -4.9108 -5.2031 -5.1534
-5.2457 -5.4413 -5.5520 -5.6633 -5.8076 -5.9189
-6.0513 -6.1356 -6.1751 -6.2438 -6.3666 -6.4667
-6.6399 -6.7590 -6.6530 -6.6800 -6.6437 -6.5802
-6.4733 -6.3663 -6.2562 -6.1487 -6.0162 -5.8887
-5.7650 -5.6039 -5.4581 -5.3297 -5.1991 -5.1154
-4.9967 -5.0116 -4.9307 -4.8197 -4.8480 -4.7594
-4.6820 -4.5868 -4.5116 -4.4077 -4.3403 -4.1929
-4.0838 -3.9637 -3.8185 -3.6783 -3.5175 -3.3981
-3.2781 -3.1777 -3.0751 -3.0085 -2.9625 -2.9109
-2.8665 -2.7925 -2.6852 -2.5704 -2.4283 -2.2984
-2.1833 -2.0848 -1.9949 -1.9147 -1.7912 -1.6551
-1.5127 -1.3768 -1.2599 -1.1619 -1.0596 -0.9303
-0.7782 -0.6026 -0.4241 -0.2372 -0.0472 0.1801
0.4301 0.7018 0.9723 1.2024 1.3840 1.5342
1.6676 1.8056 1.9878 2.1912 2.3796 2.5376
2.6778 2.7975 2.9290 3.0870 3.2552 3.4337
3.6208 3.8251 4.0297 4.2250 4.3867 4.5201
4.6373 4.7452 4.8347 4.8969 4.9376 4.9392
4.9383 4.9790 5.0328 5.0704 5.0925 5.0928
5.1052 5.1419 5.2091 5.2741 5.3126 5.3412
5.3468 5.3220 5.2930 5.2685 5.2262 5.1907
5.1391 5.0685 4.9893 4.9209 4.8627 4.7803
4.6646 4.5226 4.3671 4.2185 4.0596 3.8525
3.6342 3.4044 3.2005 3.0148 2.8364 2.6660
2.5012 2.3538 2.2167 2.1181 2.0329 1.9508
1.8336 1.6893 1.5205 1.3439 1.1713 0.9879
0.7917 0.5715 0.3607 0.1546 -0.0394 -0.2459
-0.4328 -0.5907 -0.7179 -0.8211 -0.9374 -1.0655
-1.1750 -1.2564 -1.3140 -1.3506 -1.3789 -1.3923
-1.4191 -1.4756 -1.5605 -1.6379 -1.6973 -1.7039
-1.6749 -1.6165 -1.5602 -1.5120 -1.4912 -1.4927
-1.4996 -1.4747 -1.4144 -1.3404 -1.2474 -1.1790
-1.1240 -1.1196 -1.1296 -1.1632 -1.1579 -1.1548
-1.0848 -1.0267 -0.8945 -0.8249 -0.8320 -0.6884
-0.6570 -0.6324 -0.6246 -0.6184 -0.6234 -0.5973
-0.6025 -0.5783 -0.5917 -0.5491 -0.5124 -0.4558
-0.2817 -0.3037 -0.1725 -0.0516 0.0119 0.1179
0.2217 0.3489 0.4727 0.5827 0.6421 0.6863
0.6857 0.6729 0.6468 0.6322 0.6328 0.6340
0.6294 0.6378 0.6543 0.6981 0.7575 0.7954
0.8268 0.8340 0.8246 0.7895 0.7482 0.7217
0.7037 0.6838 0.6449 0.6030 0.5551 0.5041
0.4500 0.4043 0.3579 0.3181 0.2662 0.1916
0.1020 0.0047 -0.0876 -0.1511 -0.2005 -0.2409
-0.2904 -0.3644 -0.4384 -0.5192 -0.5805 -0.6259
-0.6629 -0.7023 -0.7344 -0.7651 -0.7751 -0.7770
-0.7589 -0.7294 -0.7170 -0.7313 -0.7770 -0.8379
-0.9007 -0.9570 -1.0039 -1.0313 -1.0671 -1.0913
-1.1050 -1.0932 -1.0714 -1.0534 -1.0506 -1.0540
-1.0577 -1.0801 -1.0860 -1.0829 -1.0689 -1.0329
-1.0167 -1.0214 -1.0301 -1.0518 -1.0751 -1.0764
-1.0652 -1.0469 -1.0154 -1.0114 -1.0500 -1.1003
-1.1519 -1.1942 -1.2107 -1.2331 -1.2661 -1.3062
-1.3407 -1.3388 -1.3167 -1.3111 -1.3236 -1.3547
-1.3979 -1.4436 -1.4688 -1.4576 -1.4159 -1.3516
-1.2925 -1.2480 -1.2104 -1.1414 -1.0444 -0.9483
-0.8671 -0.8127 -0.7782 -0.7396 -0.6927 -0.6286
-0.5767 -0.5099 -0.4508 -0.4060 -0.3678 -0.3345
-0.2754 -0.2185 -0.1694 -0.1529 -0.1619 -0.1999
-0.2372 -0.3009 -0.3671 -0.4474 -0.5130 -0.5537
-0.5615 -0.5434 -0.5111 -0.4539 -0.4035 -0.3513
-0.3068 -0.2400 -0.2033 -0.1293 -0.0534 -0.0360
0.0113 0.0616 0.1269 0.2003 0.2398 0.2889
0.3595 0.4749 0.5943 0.7329 0.8421 0.9770
1.0526 1.1626 1.2370 1.2886 1.4782 1.4929
1.5373 1.5681 1.5529 1.5323 1.5009 1.4596
1.4238 1.3934 1.3520 1.3119 1.2301 1.1409
1.0566 0.9835 0.9170 0.8638 0.7920 0.7273
0.6344 0.5414 0.4469 0.3545 0.2429 0.1630
0.1011 0.0930 0.0986 0.1335 0.1282 0.1160
0.1288 0.0924 0.1257 0.1154 0.1677 0.1876
0.2031 0.2215 0.1928 0.1950 0.1711 0.1509
0.1192 0.1092 0.0977 0.0965 0.1098 0.1067
0.1129 0.1136 0.0871 0.0228 -0.0708 -0.1669
-0.2291 -0.2729 -0.3040 -0.3196 -0.3634 -0.4184
-0.4757 -0.5210 -0.5646 -0.5773 -0.5789 -0.5696
-0.5450 -0.5310 -0.5179 -0.5238 -0.5425 -0.5851
-0.6324 -0.6703 -0.6911 -0.7014 -0.7017 -0.7070
-0.7148 -0.7176 -0.7219 -0.7343 -0.7542 -0.7713
-0.7878 -0.7940 -0.7965 -0.8055 -0.7872 -0.7452
-0.6787 -0.5947 -0.5353 -0.4900 -0.4707 -0.4617
-0.4315 -0.3877 -0.3345 -0.2704 -0.1824 -0.0829
0.0284 0.1521 0.2678 0.3779 0.4578 0.5063
0.5268 0.5402 0.5408 0.5277 0.5044 0.4736
0.4671 0.4926 0.5430 0.5877 0.6403 0.6938
0.7292 0.7799 0.8321 0.8614 0.8685 0.8710
0.8788 0.8841 0.8744 0.8306 0.7892 0.7482
0.7317 0.7078 0.7022 0.6630 0.6207 0.5734
0.4994 0.4544 0.3772 0.3418 0.2846 0.2572
0.2401 0.2274 0.2202 0.2106 0.2411 0.2740
0.3266 0.3729 0.4174 0.4593 0.5237 0.5918
0.6596 0.7019 0.7043 0.6776 0.6465 0.6431
0.6583 0.6866 0.7146 0.7127 0.6698 0.6120
0.5501 0.4783 0.3993 0.3073 0.2115 0.1158
0.0296 -0.0400 -0.1047 -0.1395 -0.1591 -0.1731
-0.1893 -0.2048 -0.2204 -0.2337 -0.2465 -0.2679
-0.2950 -0.3196 -0.3295 -0.3351 -0.3189 -0.2726
-0.2020 -0.0954 0.0150 0.1015 0.1938 0.2809
0.3648 0.4435 0.5206 0.6033 0.6882 0.7724
0.8505 0.9232 1.0122 1.1194 1.2277 1.3293
1.3909 1.4195 1.4410 1.4506 1.4338 1.4238
1.3984 1.3635 1.3082 1.2180 1.1198 1.0196
0.9192 0.8175 0.7236 0.6381 0.5669 0.5159
0.4805 0.4537 0.4363 0.4087 0.3844 0.3536
0.3381 0.3440 0.3555 0.3570 0.3508 0.3235
0.3051 0.3191 0.3580 0.4143 0.4525 0.4659
0.4357 0.3797 0.2983 0.2069 0.1179 0.0411
-0.0288 -0.0776 -0.1187 -0.1551 -0.1827 -0.2213
-0.2676 -0.3382 -0.4318 -0.5316 -0.6423 -0.7552
-0.8599 -0.9482 -1.0341 -1.1177 -1.1898 -1.2691
-1.3074 -1.3226 -1.3263 -1.3397 -1.3798 -1.4572
-1.5524 -1.6500 -1.7380 -1.8005 -1.8487 -1.8661
-1.9056 -1.9236 -1.9224 -1.9134 -1.8795 -1.8356
-1.7753 -1.7153 -1.6525 -1.5928 -1.5387 -1.4855
-1.4013 -1.2856 -1.1575 -1.0297 -0.9274 -0.8288
-0.7206 -0.6211 -0.5260 -0.4504 -0.4050 -0.3799
-0.3864 -0.4215 -0.4654 -0.5331 -0.6159 -0.7004
-0.7679 -0.7984 -0.8223 -0.8323 -0.8444 -0.8736
-0.9215 -1.0020 -1.1018 -1.1989 -1.2878 -1.3543
-1.4196 -1.4793 -1.5350 -1.5751 -1.5987 -1.6024
-1.5704 -1.5048 -1.4087 -1.3117 -1.2150 -1.1578
-1.1068 -1.0826 -1.0596 -1.0533 -1.0580 -1.0347
-0.9943 -0.9324 -0.8627 -0.7869 -0.7110 -0.6292
-0.5664 -0.4859 -0.4013 -0.3105 -0.2303 -0.1538
-0.0957 -0.0344 0.0499 0.1512 0.2669 0.3546
0.4342 0.5175 0.5893 0.6593 0.7529 0.8359
0.9111 0.9578 1.0041 1.0380 1.0666 1.1235
1.1826 1.2423 1.3020 1.3045 1.2995 1.2849
1.2606 1.2979 1.3455 1.3953 1.4149 1.4786
1.6067 1.6944 1.7933 1.9313 2.0348 2.1570
2.2037 2.3060 2.4316 2.4577 2.5544 2.6057
2.6135 2.6253 2.6300 2.6206 2.6144 2.6023
2.6088 2.6284 2.6346 2.6614 2.7052 2.7752
2.8377 2.8800 2.8821 2.8420 2.7683 2.6785
2.6032 2.5320 2.4742 2.4353 2.4229 2.4291
2.4484 2.4531 2.4419 2.4207 2.3949 2.3567
2.2858 2.2105 2.1272 2.0607 2.0109 1.9649
1.9248 1.9117 1.9229 1.9422 1.9618 1.9904
2.0193 2.0255 2.0277 2.0395 2.0405 2.0454
2.0470 2.0451 2.0237 1.9795 1.9410 1.8769
1.8309 1.7905 1.7457 1.6882 1.6359 1.6064
1.5825 1.5691 1.5423 1.4976 1.4491 1.3810
1.3079 1.2215 1.1045 0.9848 0.8412 0.7215
0.6148 0.5243 0.4395 0.3536 0.2706 0.1767
0.0931 0.0297 -0.0263 -0.0810 -0.1190 -0.1622
-0.1793 -0.1861 -0.1759 -0.1718 -0.1084 -0.0649
-0.0400 0.0309 0.0794 0.1285 0.1438 0.1777
0.2100 0.2411 0.2607 0.2818 0.3319 0.4028
0.4992 0.5872 0.6434 0.6720 0.6904 0.7165
0.7625 0.8101 0.8524 0.8757 0.8583 0.7967
0.7165 0.6164 0.5082 0.4165 0.3393 0.2744
0.2147 0.1394 0.0614 -0.0077 -0.0630 -0.1221
-0.1815 -0.2368 -0.3030 -0.3621 -0.4109 -0.4545
-0.5039 -0.5387 -0.5707 -0.6121 -0.6472 -0.6973
-0.7458 -0.8158 -0.9072 -0.9995 -1.0891 -1.1802
-1.2862 -1.3935 -1.5169 -1.6690 -1.8241 -1.9569
-2.0701 -2.1612 -2.2759 -2.3944 -2.5321 -2.7003
-2.8695 -3.0327 -3.1866 -3.3446 -3.5013 -3.6518
-3.7982 -3.9624 -4.1132 -4.2307 -4.3206 -4.4120
-4.4960 -4.5802 -4.6834 -4.7898 -4.8765 -4.9409
-4.9878 -5.0388 -5.0973 -5.1595 -5.2338 -5.2957
-5.3504 -5.3977 -5.4518 -5.4944 -5.5292 -5.5575
-5.5792 -5.5656 -5.5422 -5.5282 -5.5105 -5.4962
-5.4583 -5.3970 -5.2994 -5.1732 -5.0283 -4.8712
-4.7139 -4.5398 -4.3560 -4.1729 -4.0069 -3.8763
-3.7625 -3.6701 -3.5700 -3.4748 -3.3657 -3.2631
-3.1481 -3.0560 -2.9413 -2.8381 -2.7348 -2.6375
-2.5660 -2.4736 -2.5082 -2.4077 -2.3057 -2.3260
-2.2423 -2.1882 -2.2205 -2.1425 -2.0974 -2.0697
-1.9964 -1.9292 -1.8011 -1.7128 -1.6158 -1.5325
-1.4650 -1.3748 -1.2644 -1.1410 -0.9995 -0.8689
-0.7234 -0.5602 -0.3811 -0.1902 0.0216 0.2190
0.4059 0.6005 0.7706 0.9553 1.1232 1.2706
1.4009 1.5377 1.6652 1.7924 1.9254 2.0598
2.1711 2.2516 2.3150 2.3685 2.4322 2.5091
2.5946 2.6822 2.7612 2.8091 2.8274 2.8175
2.8141 2.8228 2.8526 2.9077 2.9621 3.0134
3.0532 3.0902 3.1238 3.1595 3.2118 3.2951
3.3806 3.4782 3.5927 3.6971 3.8109 3.9120
3.9969 4.0674 4.1262 4.1685 4.1977 4.2055
4.2030 4.2008 4.1983 4.1928 4.1872 4.1893
4.1809 4.1579 4.1044 4.0283 3.9474 3.8793
3.8175 3.7519 3.6741 3.5955 3.5137 3.4353
3.3563 3.2677 3.1776 3.0883 2.9929 2.8971
2.8048 2.7015 2.6039 2.5109 2.4257 2.3474
2.2737 2.2050 2.1468 2.0881 2.0256 1.9460
1.8517 1.7600 1.6882 1.6428 1.5996 1.5442
1.4749 1.4080 1.3574 1.3278 1.3229 1.3356
1.3294 1.3141 1.2983 1.2700 1.2262 1.1736
1.1002 1.0256 0.9513 0.8639 0.7890 0.7206
0.6366 0.5530 0.4653 0.3527 0.2287 0.1146
0.0070 -0.0975 -0.1880 -0.2868 -0.3674 -0.4408
-0.5235 -0.5894 -0.6354 -0.6780 -0.6522 -0.6077
-0.5866 -0.5409 -0.5135 -0.4989 -0.4802 -0.4237
-0.3851 -0.3260 -0.2697 -0.2613 -0.2669 -0.3074
-0.3627 -0.4336 -0.4849 -0.5415 -0.5953 -0.6438
-0.7016 -0.7514 -0.8223 -0.9162 -1.0063 -1.0825
-1.1584 -1.2383 -1.3114 -1.3950 -1.4880 -1.5747
-1.6730 -1.7877 -1.9024 -2.0125 -2.1067 -2.1714
-2.2327 -2.2843 -2.3384 -2.4049 -2.4696 -2.5302
-2.5871 -2.6310 -2.6456 -2.6443 -2.6496 -2.6580
-2.6760 -2.7357 -2.8138 -2.8878 -2.9574 -3.0112
-3.0454 -3.0656 -3.0775 -3.0715 -3.0666 -3.0529
-3.0178 -2.9574 -2.8688 -2.7730 -2.6760 -2.5865
-2.4963 -2.4061 -2.3063 -2.2019 -2.0818 -1.9519
-1.8259 -1.7056 -1.6002 -1.4939 -1.3941 -1.2859
-1.1801 -1.0710 -0.9305 -0.7896 -0.6254 -0.4734
-0.3130 -0.1765 -0.0844 0.0496 0.1609 0.2685
0.3944 0.5231 0.6472 0.7626 0.8593 0.9529
1.0405 1.1288 1.2178 1.2877 1.3611 1.4031
1.4351 1.4628 1.4842 1.5365 1.6095 1.6692
1.7187 1.7725 1.8194 1.8695 1.9227 1.9746
2.0147 2.0452 2.0747 2.0986 2.1111 2.1018
2.1027 2.1033 2.0906 2.0803 2.0825 2.0996
2.1139 2.1412 2.1711 2.1991 2.2128 2.2134
2.2062 2.1842 2.1499 2.1101 2.0840 2.0635
2.0501 2.0162 1.9696 1.9127 1.8648 1.8309
1.7949 1.7529 1.6891 1.6058 1.5029 1.3956
1.2784 1.1680 1.0536 0.9370 0.8322 0.7268
0.6401 0.5574 0.4939 0.4268 0.3795 0.3341
0.2884 0.2474 0.1873 0.1594 0.1199 0.0857
0.0434 0.0067 -0.0375 -0.0664 -0.0944 -0.1239
-0.1827 -0.2405 -0.3083 -0.3910 -0.4743 -0.5489
-0.6080 -0.6674 -0.7084 -0.7756 -0.8440 -0.9370
-1.0045 -1.1027 -1.1643 -1.2588 -1.3002 -1.4052
-1.4174 -1.4311 -1.5952 -1.5769 -1.6114 -1.6661
-1.7320 -1.7762 -1.8160 -1.8427 -1.8676 -1.9086
-1.9652 -2.0343 -2.1036 -2.1515 -2.1801 -2.1863
-2.1686 -2.1502 -2.1266 -2.1282 -2.1275 -2.1481
-2.1565 -2.1599 -2.1418 -2.1160 -2.0930 -2.0694
-2.0554 -2.0417 -2.0299 -2.0016 -1.9522 -1.8928
-1.8228 -1.7625 -1.7006 -1.6624 -1.6471 -1.6546
-1.6627 -1.6745 -1.6742 -1.6114 -1.5277 -1.4245
-1.3260 -1.2498 -1.1779 -1.1005 -1.0206 -0.9323
-0.8362 -0.7402 -0.6422 -0.5524 -0.4619 -0.3617
-0.2576 -0.1382 -0.0182 0.1137 0.2738 0.4672
0.6668 0.8708 1.0592 1.2190 1.3617 1.4979
1.6183 1.7355 1.8568 1.9762 2.1055 2.2289
2.3598 2.5026 2.6527 2.8032 2.9428 3.0604
3.1764 3.2839 3.3952 3.5019 3.6039 3.6928
3.7755 3.8470 3.9058 3.9406 3.9683 3.9702
3.9478 3.9304 3.8959 3.8635 3.8194 3.7777
3.7301 3.6928 3.6580 3.6260 3.5961 3.5719
3.5398 3.5202 3.4951 3.4739 3.4786 3.4935
3.5202 3.5476 3.5688 3.5712 3.5712 3.5669
3.5625 3.5569 3.5535 3.5429 3.5358 3.5063
3.4671 3.4201 3.3841 3.3701 3.3750 3.3831
3.3865 3.3934 3.3928 3.3909 3.3940 3.3981
3.3872 3.3819 3.3567 3.3194 3.2870 3.2463
3.2099 3.1739 3.1356 3.1039 3.0545 3.0004
2.9341 2.8595 2.7740 2.6764 2.5834 2.4976
2.4096 2.3129 2.2137 2.1008 2.0004 1.9078
1.8095 1.7029 1.5922 1.4712 1.3428 1.2162
1.0919 0.9703 0.8525 0.7228 0.5791 0.4243
0.2542 0.0916 -0.0583 -0.2022 -0.3350 -0.4454
-0.5551 -0.6689 -0.8026 -0.9631 -1.1198 -1.2721
-1.4034 -1.5200 -1.6182 -1.7047 -1.7790 -1.8611
-1.9481 -2.0411 -2.1574 -2.2528 -2.3607 -2.4705
-2.5861 -2.7111 -2.8417 -2.9785 -3.1057 -3.2170
-3.3112 -3.4045 -3.4882 -3.5603 -3.6197 -3.6750
-3.7176 -3.7671 -3.8031 -3.8125 -3.8125 -3.8205
-3.8289 -3.8454 -3.8712 -3.9011 -3.9446 -3.9710
-3.9919 -4.0003 -4.0080 -4.0261 -4.0485 -4.0550
-4.0556 -4.0509 -4.0472 -4.0441 -4.0404 -4.0491
-4.0600 -4.0705 -4.0544 -4.0292 -4.0121 -3.9987
-3.9884 -3.9757 -3.9455 -3.9070 -3.8473 -3.7717
-3.6977 -3.6187 -3.5469 -3.4701 -3.3943 -3.3184
-3.2475 -3.1800 -3.1116 -3.0476 -2.9904 -2.9375
-2.8893 -2.8442 -2.7798 -2.7083 -2.6315 -2.5501
-2.4627 -2.3666 -2.2792 -2.2118 -2.1598 -2.1141
-2.0635 -2.0109 -1.9680 -1.9170 -1.8766 -1.8685
-1.8390 -1.8088 -1.7901 -1.7541 -1.7280 -1.7022
-1.6779 -1.6468 -1.6238 -1.5964 -1.5744 -1.5486
-1.5262 -1.4954 -1.4590 -1.4211 -1.3735 -1.3381
-1.2948 -1.2538 -1.2006 -1.1462 -1.0641 -0.9855
-0.8732 -0.7980 -0.6876 -0.6419 -0.6291 -0.5268
-0.4786 -0.4096 -0.3471 -0.2541 -0.1665 -0.0551
0.0344 0.1289 0.2073 0.2856 0.3870 0.4722
0.5667 0.6432 0.7048 0.7421 0.7747 0.7754
0.7887 0.7984 0.8105 0.8251 0.8403 0.8484
0.8637 0.8686 0.9000 0.9423 1.0076 1.0850
1.1628 1.2358 1.2794 1.3304 1.3624 1.4019
1.4401 1.4883 1.5350 1.5785 1.6068 1.6481
1.6820 1.7156 1.7371 1.7349 1.7203 1.6973
1.6771 1.6481 1.6236 1.5801 1.5424 1.4893
1.4286 1.3630 1.2909 1.2243 1.1637 1.1171
1.0608 1.0101 0.9461 0.8861 0.8351 0.7831
0.7427 0.6871 0.6221 0.5381 0.4517 0.3764
0.3143 0.2698 0.2418 0.2250 0.2225 0.2259
0.2390 0.2645 0.3037 0.3494 0.4007 0.4514
0.4831 0.5045 0.5129 0.5319 0.5565 0.5932
0.6199 0.6354 0.6435 0.6497 0.6669 0.6973
0.7269 0.7461 0.7611 0.7639 0.7757 0.7915
0.8273 0.8593 0.8926 0.9349 0.9846 1.0412
1.1056 1.1696 1.2309 1.2965 1.3503 1.4050
1.4523 1.4995 1.5623 1.6382 1.7166 1.8049
1.8823 1.9513 1.9983 2.0272 2.0446 2.0626
2.0912 2.1301 2.1699 2.1985 2.2094 2.1985
2.1873 2.1668 2.1606 2.1469 2.1376 2.1239
2.1174 2.1102 2.0909 2.0794 2.0804 2.1046
2.1233 2.1450 2.1457 2.1373 2.1313 2.1158
2.0887 2.0654 2.0334 2.0067 1.9858 1.9457
1.9078 1.8500 1.7669 1.6814 1.5950 1.5123
1.4333 1.3500 1.2785 1.2020 1.1354 1.0711
0.9943 0.9022 0.7978 0.6967 0.5988 0.5123
0.4355 0.3653 0.3012 0.2505 0.1942 0.1336
0.0658 -0.0082 -0.0896 -0.1795 -0.2703 -0.3546
-0.4481 -0.5417 -0.6397 -0.7541 -0.8816 -1.0302
-1.1882 -1.3430 -1.4823 -1.6051 -1.7080 -1.8131
-1.9142 -2.0143 -2.1067 -2.1953 -2.2659 -2.3103
-2.3308 -2.3367 -2.3290 -2.3038 -2.2662 -2.2161
-2.1863 -2.1679 -2.1598 -2.1477 -2.1340 -2.1228
-2.1216 -2.1337 -2.1424 -2.1396 -2.1331 -2.1163
-2.0976 -2.0687 -2.0460 -2.0305 -2.0016 -1.9378
-1.8641 -1.8091 -1.7310 -1.6555 -1.5802 -1.4988
-1.4136 -1.3365 -1.2603 -1.1897 -1.1222 -1.0607
-1.0025 -0.9450 -0.8844 -0.8421 -0.8135 -0.7849
-0.7712 -0.7544 -0.7451 -0.7261 -0.6941 -0.6446
-0.5927 -0.5663 -0.5629 -0.5759 -0.5849 -0.5750
-0.5514 -0.4938 -0.4202 -0.3340 -0.2439 -0.1590
-0.0859 -0.0169 0.0574 0.1454 0.2396 0.3264
0.4113 0.4853 0.5733 0.6694 0.7884 0.9153
1.0425 1.1653 1.2754 1.3814 1.4818 1.5875
1.6905 1.7757 1.8413 1.8979 1.9541 2.0082
2.0776 2.1379 2.1960 2.2470 2.3002 2.3543
2.4100 2.4749 2.5231 2.5788 2.6146 2.6397
2.6587 2.6777 2.6886 2.7007 2.6948 2.6767
2.6531 2.6195 2.5928 2.5632 2.5430 2.5238
2.5129 2.5045 2.4874 2.4600 2.4336 2.3935
2.3720 2.3599 2.3400 2.3282 2.3226 2.3067
2.2927 2.2728 2.2430 2.2069 2.1441 2.0623
1.9712 1.8845 1.8111 1.7548 1.7032 1.6650
1.6217 1.5683 1.5055 1.4455 1.3823 1.3077
1.2163 1.1143 0.9902 0.8649 0.7570 0.6619
0.5786 0.4974 0.4290 0.3460 0.2552 0.1538
0.0323 -0.0968 -0.2233 -0.3514 -0.4917 -0.6428
-0.7967 -0.9521 -1.0874 -1.2031 -1.3159 -1.4273
-1.5320 -1.6350 -1.7416 -1.8473 -1.9515 -2.0404
-2.1216 -2.1869 -2.2394 -2.2907 -2.3426 -2.4110
-2.4835 -2.5721 -2.6557 -2.7394 -2.8137 -2.8784
-2.9322 -2.9810 -3.0422 -3.1044 -3.1993 -3.2596
-3.3376 -3.3961 -3.4443 -3.4959 -3.5407 -3.6100
-3.6498 -3.7061 -3.7328 -3.7527 -3.7558 -3.7452
-3.7337 -3.7216 -3.7191 -3.7005 -3.6790 -3.6517
-3.6134 -3.5674 -3.5323 -3.5009 -3.4788 -3.4604
-3.4471 -3.4312 -3.4085 -3.3727 -3.3152 -3.2409
-3.1641 -3.0851 -3.0102 -2.9415 -2.8457 -2.7341
-2.6026 -2.4555 -2.2966 -2.1418 -1.9938 -1.8666
-1.7397 -1.6213 -1.5177 -1.3865 -1.2696 -1.1477
-1.0265 -0.9248 -0.8411 -0.7618 -0.6804 -0.5812
-0.4487 -0.3113 -0.1673 -0.0414 0.0683 0.1616
0.2496 0.3457 0.4430 0.5490 0.6541 0.7530
0.8391 0.9172 0.9977 1.0789 1.1569 1.2306
1.3090 1.4007 1.5024 1.6065 1.6942 1.7695
1.8279 1.8786 1.9209 1.9535 1.9880 2.0285
2.0661 2.1065 2.1438 2.1839 2.2278 2.2688
2.3335 2.3584 2.3736 2.3991 2.3982 2.4066
2.4277 2.4551 2.4896 2.5092 2.5294 2.5403
2.5381 2.5623 2.6003 2.6416 2.6693 2.6973
2.7436 2.7893 2.8282 2.8406 2.8409 2.8450
2.8447 2.8422 2.8179 2.7834 2.7514 2.7343
2.7343 2.7436 2.7576 2.7666 2.7685 2.7623
2.7458 2.7281 2.7057 2.6606 2.6018 2.5288
2.4467 2.3705 2.3033 2.2402 2.1659 2.0798
1.9880 1.8767 1.7676 1.6650 1.5611 1.4545
1.3338 1.2110 1.0972 1.0061 0.9312 0.8668
0.7969 0.7185 0.6299 0.5270 0.4129 0.3040
0.2049 0.1175 0.0472 -0.0336 -0.1160 -0.2118
-0.2998 -0.3881 -0.4808 -0.5576 -0.6421 -0.7385
-0.8539 -0.9655 -1.0637 -1.1480 -1.2245 -1.2904
-1.3504 -1.4188 -1.4913 -1.5824 -1.6760 -1.7811
-1.8834 -1.9683 -2.0367 -2.0849 -2.1141 -2.1374
-2.1843 -2.2201 -2.2695 -2.3097 -2.3407 -2.3753
-2.4213 -2.4751 -2.5357 -2.5895 -2.6358 -2.6899
-2.7139 -2.7714 -2.7984 -2.8379 -2.8690 -2.9035
-2.9436 -2.9813 -3.0450 -3.1221 -3.1644 -3.2135
-3.2471 -3.2303 -3.2471 -3.1986 -3.2008 -3.1768
-3.1781 -3.1684 -3.1712 -3.1203 -3.0817 -3.0531
-2.9290 -2.8684 -2.8118 -2.7835 -2.6940 -2.6066
-2.5404 -2.4744 -2.3725 -2.3072 -2.2434 -2.1868
-2.1144 -2.0413 -1.9483 -1.8426 -1.7472 -1.6614
-1.5911 -1.5022 -1.4425 -1.3545 -1.2767 -1.1688
-1.0749 -0.9506 -0.8343 -0.7102 -0.6039 -0.4966
-0.3890 -0.2836 -0.1518 -0.0234 0.1206 0.2425
0.3631 0.4660 0.5786 0.6952 0.8264 0.9433
1.0444 1.1221 1.1846 1.2316 1.2975 1.3849
1.4598 1.5394 1.5982 1.6376 1.6703 1.7092
1.7477 1.7850 1.7978 1.8099 1.8270 1.8180
1.8295 1.8438 1.8416 1.8444 1.8332 1.8205
1.8118 1.8049 1.7891 1.7804 1.7664 1.7511
1.7490 1.7384 1.7272 1.7228 1.7210 1.7060
1.6983 1.6970 1.6949 1.6858 1.6746 1.6566
1.6327 1.6121 1.6075 1.5975 1.5879 1.5758
1.5546 1.5182 1.4738 1.4396 1.3995 1.3656
1.3323 1.3022 1.2627 1.2309 1.1812 1.1703
1.1566 1.1386 1.1342 1.0997 1.0839 1.0472
1.0198 0.9816 0.9256 0.8693 0.8137 0.7624
0.7260 0.6958 0.6697 0.6358 0.5911 0.5404
0.4872 0.4552 0.4328 0.4259 0.4070 0.3852
0.3610 0.3473 0.3532 0.3868 0.4306 0.4807
0.5447 0.6050 0.6613 0.7055 0.7614 0.8171
0.8734 0.9225 0.9595 0.9965 1.0338 1.0752
1.1066 1.1339 1.1504 1.1768 1.2017 1.2244
1.2446 1.2440 1.2406 1.2285 1.2232 1.2319
1.2459 1.2558 1.2583 1.2533 1.2437 1.2188
1.1995 1.1824 1.1604 1.1336 1.0917 1.0487
1.0208 1.0102 1.0173 1.0261 1.0372 1.0481
1.0624 1.0584 1.0338 1.0226 0.9853 0.9433
0.8892 0.8317 0.7667 0.6968 0.6197 0.5435
0.4819 0.4247 0.3737 0.3237 0.2870 0.2462
0.2039 0.1449 0.0808 0.0015 -0.0784 -0.1639
-0.2509 -0.3337 -0.4167 -0.4683 -0.5274 -0.5603
-0.5843 -0.6259 -0.6639 -0.7124 -0.7578 -0.7901
-0.8252 -0.8486 -0.8579 -0.8576 -0.8597 -0.8479
-0.8172 -0.8032 -0.7752 -0.7506 -0.7155 -0.6667
-0.6085 -0.5445 -0.4835 -0.4241 -0.3539 -0.2988
-0.2628 -0.2338 -0.2118 -0.1866 -0.1713 -0.1409
-0.1113 -0.0631 -0.0140 0.0370 0.0846 0.1383
0.1971 0.2466 0.3069 0.3715 0.4297 0.4894
0.5569 0.6355 0.7129 0.7857 0.8510 0.8846
0.9147 0.9381 0.9679 0.9987 1.0195 1.0317
1.0298 1.0121 0.9990 0.9847 0.9832 0.9903
0.9950 0.9975 0.9688 0.9247 0.8547 0.7621
0.6669 0.5793 0.4909 0.4045 0.3190 0.2310
0.1430 0.0541 -0.0320 -0.1138 -0.1925 -0.2724
-0.3520 -0.4303 -0.5137 -0.6094 -0.7273 -0.8666
-1.0137 -1.1551 -1.2786 -1.3824 -1.4919 -1.6091
-1.7400 -1.8805 -2.0254 -2.1731 -2.3205 -2.4623
-2.5826 -2.7067 -2.8304 -2.9613 -3.0866 -3.2026
-3.3027 -3.3864 -3.4579 -3.5139 -3.5655 -3.6177
-3.6759 -3.7222 -3.7551 -3.7598 -3.7570 -3.7551
-3.7536 -3.7458 -3.7278 -3.7013 -3.6687 -3.6416
-3.6186 -3.6078 -3.6031 -3.5991 -3.5922 -3.5798
-3.5593 -3.5390 -3.5151 -3.4818 -3.4417 -3.3982
-3.3484 -3.2946 -3.2362 -3.1743 -3.1059 -3.0478
-3.0017 -2.9498 -2.9023 -2.8357 -2.7685 -2.6883
-2.5969 -2.4980 -2.3811 -2.2742 -2.1725 -2.0699
-1.9663 -1.8532 -1.7254 -1.6016 -1.4670 -1.3389
-1.1990 -1.0705 -0.9552 -0.8237 -0.7167 -0.6007
-0.4776 -0.3436 -0.1919 -0.0454 0.0908 0.2316
0.3800 0.5388 0.7080 0.8740 1.0410 1.2111
1.3631 1.5002 1.6364 1.7614 1.9010 2.0521
2.2051 2.3643 2.5105 2.6355 2.7524 2.8606
2.9781 3.0959 3.2138 3.3273 3.4196 3.5198
3.6199 3.7150 3.8055 3.8969 3.9774 4.0458
4.1080 4.1702 4.2405 4.3036 4.3593 4.4193
4.4662 4.5085 4.5455 4.5747 4.6018 4.6366
4.6705 4.6966 4.7187 4.7280 4.7181 4.6879
4.6631 4.6435 4.6515 4.6543 4.6543 4.6320
4.5937 4.5449 4.4790 4.4168 4.3468 4.2887
4.2358 4.1876 4.1270 4.0620 3.9840 3.9137
3.8450 3.7797 3.7243 3.6572 3.5941 3.5309
3.4594 3.3985 3.3357 3.2701 3.1970 3.1127
3.0235 2.9234 2.8180 2.7014 2.5829 2.4657
2.3662 2.2645 2.1610 2.0475 1.9359 1.8224
1.7129 1.6035 1.4971 1.4048 1.3041 1.2154
1.1287 1.0413 0.9530 0.8703 0.7870 0.7235
0.6701 0.6203 0.5597 0.4795 0.3887 0.3007
0.2276 0.1766 0.1287 0.0790 0.0267 -0.0395
-0.1181 -0.2052 -0.2904 -0.3893 -0.4832 -0.5898
-0.7036 -0.8246 -0.9399 -1.0659 -1.1934 -1.3193
-1.4440 -1.5584 -1.6625 -1.7617 -1.8547 -1.9334
-2.0058 -2.0658 -2.1321 -2.1874 -2.2555 -2.3242
-2.3945 -2.4626 -2.5111 -2.5397 -2.5649 -2.5991
-2.6364 -2.6827 -2.7334 -2.7807 -2.8245 -2.8655
-2.9025 -2.9343 -2.9532 -2.9641 -2.9650 -2.9737
-2.9781 -2.9862 -2.9846 -2.9744 -2.9598 -2.9436
-2.9402 -2.9408 -2.9464 -2.9445 -2.9420 -2.9339
-2.9193 -2.9072 -2.8901 -2.8733 -2.8550 -2.8304
-2.8046 -2.7676 -2.7253 -2.6684 -2.6040 -2.5347
-2.4623 -2.3814 -2.2757 -2.1551 -2.0378 -1.9284
-1.8280 -1.7347 -1.6439 -1.5438 -1.4359 -1.3227
-1.2170 -1.1246 -1.0363 -0.9458 -0.8351 -0.7142
-0.5640 -0.4185 -0.2655 -0.1272 -0.0043 0.1082
0.2068 0.3091 0.4011 0.4854 0.5519 0.6290
0.7002 0.7727 0.8436 0.9114 0.9757 1.0479
1.1160 1.1800 1.2366 1.2848 1.3314 1.3781
1.4194 1.4611 1.4881 1.5065 1.5304 1.5503
1.5911 1.6361 1.7033 1.7633 1.8168 1.8603
1.9004 1.9371 1.9791 2.0257 2.0848 2.1517
2.2132 2.2813 2.3385 2.3970 2.4449 2.4909
2.5223 2.5469 2.5652 2.5773 2.5867 2.5745
2.5444 2.4875 2.4054 2.3382 2.2860 2.2437
2.2108 2.1784 2.1355 2.0854 2.0170 1.9359
1.8501 1.7646 1.6875 1.6097 1.5388 1.4515
1.3594 1.2630 1.1713 1.1122 1.0547 0.9984
0.9624 0.8784 0.7997 0.7083 0.6312 0.5672
0.4767 0.4313 0.3626 0.2985 0.2326 0.1633
0.0837 -0.0053 -0.0951 -0.1682 -0.2319 -0.2873
-0.3588 -0.4427 -0.5251 -0.6284 -0.7039 -0.7832
-0.8538 -0.9356 -1.0155 -1.0808 -1.1380 -1.2023
-1.2421 -1.2969 -1.3622 -1.4340 -1.5155 -1.5811
-1.6507 -1.6970 -1.7511 -1.8012 -1.8528 -1.8855
-1.9240 -1.9635 -2.0089 -2.0490 -2.0860 -2.1218
-2.1507 -2.1840 -2.2144 -2.2461 -2.2794 -2.2990
-2.3146 -2.3332 -2.3553 -2.4060 -2.4448 -2.4924
-2.5272 -2.5555 -2.5782 -2.5947 -2.6028 -2.6112
-2.6208 -2.6298 -2.6404 -2.6252 -2.5978 -2.5605
-2.5201 -2.4977 -2.4933 -2.4790 -2.4675 -2.4349
-2.4022 -2.3724 -2.3369 -2.3015 -2.2567 -2.2119
-2.1784 -2.1516 -2.1233 -2.0841 -2.0276 -1.9675
-1.9078 -1.8379 -1.7592 -1.6725 -1.5789 -1.5002
-1.4284 -1.3662 -1.3099 -1.2536 -1.1896 -1.1131
-1.0466 -0.9956 -0.9325 -0.8581 -0.7608 -0.6529
-0.5568 -0.4580 -0.3575 -0.2559 -0.1442 -0.0360
0.0684 0.1651 0.2435 0.3169 0.3822 0.4506
0.5227 0.6188 0.7205 0.8215 0.9108 0.9776
1.0239 1.0656 1.1035 1.1346 1.1691 1.1953
1.2298 1.2643 1.2957 1.3175 1.3318 1.3293
1.3336 1.3417 1.3632 1.3856 1.4129 1.4350
1.4505 1.4614 1.4620 1.4804 1.4906 1.5189
1.5373 1.5581 1.5647 1.5566 1.5280 1.4919
1.4636 1.4521 1.4421 1.4353 1.4160 1.3921
1.3632 1.3175 1.2746 1.2220 1.2068 1.1648
1.1909 1.1452 1.0771 1.0476 0.9789 0.9188
0.8511 0.8131 0.7609 0.7059 0.6259 0.5401
0.4484 0.3632 0.2796 0.1972 0.1191 0.0613
0.0159 -0.0289 -0.0799 -0.1361 -0.1887 -0.2459
-0.3028 -0.3641 -0.4247 -0.4782 -0.5261 -0.5659
-0.6084 -0.6591 -0.7145 -0.7764 -0.8364 -0.9066
-0.9744 -1.0434 -1.1003 -1.1541 -1.1983 -1.2428
-1.2791 -1.3168 -1.3625 -1.4116 -1.4629 -1.5086
-1.5549 -1.5947 -1.6417 -1.6880 -1.7374 -1.7900
-1.8428 -1.8886 -1.9156 -1.9256 -1.9193 -1.9109
-1.9274 -1.9489 -1.9753 -1.9884 -1.9744 -1.9168
-1.8550 -1.7903 -1.7197 -1.6594 -1.6065 -1.5730
-1.5276 -1.4986 -1.4616 -1.4035 -1.3429 -1.2860
-1.2247 -1.1712 -1.1199 -1.0752 -1.0285 -0.9735
-0.9132 -0.8472 -0.7810 -0.7166 -0.6545 -0.6091
-0.5789 -0.5438 -0.5108 -0.4545 -0.3945 -0.3180
-0.2462 -0.1803 -0.1240 -0.0739 -0.0264 0.0296
0.0868 0.1372 0.1969 0.2575 0.3315 0.4033
0.4758 0.5339 0.5890 0.6431 0.7062 0.7752
0.8455 0.9229 0.9960 1.0572 1.1126 1.1570
1.2074 1.2534 1.3016 1.3554 1.4095 1.4636
1.5214 1.5777 1.6262 1.6803 1.7260 1.7851
1.8162 1.8510 1.8868 1.9058 1.9166 1.9145
1.9027 1.8862 1.8803 1.8946 1.9173 1.9397
1.9533 1.9459 1.9334 1.9033 1.8812 1.8790
1.8856 1.9023 1.9104 1.9027 1.8793 1.8461
1.8159 1.7979 1.7851 1.7901 1.7826 1.7463
1.7012 1.6244 1.5653 1.5028 1.4484 1.4129
1.3912 1.3654 1.3607 1.3374 1.3162 1.2827
1.2652 1.2329 1.2220 1.1813 1.0383 1.0989
1.0448 0.9297 0.8837 0.8318 0.7740 0.7031
0.6365 0.5495 0.4739 0.3626 0.2628 0.1673
0.0691 -0.0127 -0.1041 -0.2098 -0.2397 -0.3121
-0.4007 -0.4735 -0.5447 -0.6066 -0.6482 -0.6750
-0.6986 -0.7061 -0.7353 -0.7683 -0.8034 -0.8317
-0.8466 -0.8491 -0.8693 -0.8842 -0.9119 -0.9390
-0.9573 -0.9766 -0.9924 -1.0217 -1.0565 -1.1025
-1.1591 -1.2048 -1.2406 -1.2679 -1.2639 -1.2564
-1.2374 -1.2175 -1.2129 -1.2095 -1.2247 -1.2368
-1.2558 -1.2757 -1.2863 -1.2928 -1.2925 -1.2822
-1.2841 -1.2847 -1.2766 -1.2660 -1.2437 -1.2054
-1.1578 -1.1084 -1.0792 -1.0754 -1.0739 -1.0751
-1.0531 -1.0335 -0.9974 -0.9545 -0.9122 -0.8693
-0.8164 -0.7527 -0.6743 -0.6010 -0.5456 -0.5089
-0.4878 -0.4620 -0.4486 -0.4296 -0.3979 -0.3438
-0.2729 -0.1983 -0.1442 -0.0945 -0.0665 -0.0438
-0.0267 -0.0089 0.0184 0.0486 0.0738 0.0893
0.1089 0.1226 0.1512 0.1897 0.2401 0.2920
0.3390 0.3810 0.4201 0.4640 0.5290 0.6042
0.6860 0.7681 0.8418 0.9040 0.9748 1.0526
1.1275 1.2009 1.2482 1.2908 1.3327 1.3781
1.4304 1.4814 1.5411 1.5886 1.6263 1.6626
1.6922 1.7167 1.7345 1.7506 1.7683 1.7904
1.8091 1.8268 1.8417 1.8604 1.8716 1.8812
1.8787 1.8738 1.8616 1.8439 1.8237 1.7998
1.7876 1.7789 1.7917 1.7994 1.8109 1.8225
1.8420 1.8576 1.8710 1.8710 1.8585 1.8436
1.8246 1.8137 1.8022 1.7988 1.8035 1.8169
1.8249 1.8352 1.8302 1.8178 1.7904 1.7503
1.7068 1.6695 1.6440 1.6272 1.6191 1.6023
1.5865 1.5644 1.5429 1.5165 1.4926 1.4758
1.4643 1.4562 1.4422 1.4192 1.3890 1.3673
1.3486 1.3449 1.3203 1.3138 1.2936 1.2286
1.2124 1.1981 1.1552 1.1138 1.0827 1.0610
1.0364 0.9985 0.9462 0.8900 0.8172 0.7454
0.6795 0.6132 0.5710 0.5137 0.4746 0.3993
0.3213 0.2964 0.2563 0.2190 0.1810 0.1515
0.1217 0.0909 0.0604 0.0523 0.0467 0.0408
0.0278 -0.0021 -0.0226 -0.0319 -0.0391 -0.0378
-0.0372 -0.0422 -0.0584 -0.0811 -0.0926 -0.1109
-0.1227 -0.1398 -0.1591 -0.1837 -0.2222 -0.2561
-0.2894 -0.3230 -0.3447 -0.3702 -0.3973 -0.4377
-0.4971 -0.5524 -0.6118 -0.6625 -0.6948 -0.7315
-0.7800 -0.8329 -0.8926 -0.9392 -0.9896 -1.0307
-1.0552 -1.0767 -1.0907 -1.1106 -1.1361 -1.1777
-1.2293 -1.2893 -1.3410 -1.3749 -1.3898 -1.3932
-1.3985 -1.3982 -1.4019 -1.4159 -1.4349 -1.4523
-1.4700 -1.4753 -1.4731 -1.4678 -1.4644 -1.4743
-1.4883 -1.5054 -1.5275 -1.5319 -1.5375 -1.5521
-1.5670 -1.5850 -1.6028 -1.6307 -1.6463 -1.6662
-1.6876 -1.6904 -1.6948 -1.7029 -1.7128 -1.7271
-1.7498 -1.7654 -1.7713 -1.7822 -1.7837 -1.7828
-1.7899 -1.7996 -1.7990 -1.7856 -1.7663 -1.7349
-1.6932 -1.6600 -1.6264 -1.5841 -1.5459 -1.5092
-1.4759 -1.4423 -1.4153 -1.3860 -1.3630 -1.3478
-1.3360 -1.3229 -1.3099 -1.2903 -1.2685 -1.2421
-1.2144 -1.1936 -1.1740 -1.1556 -1.1214 -1.0860
-1.0484 -1.0219 -0.9977 -0.9793 -0.9585 -0.9377
-0.9094 -0.8774 -0.8615 -0.8453 -0.8360 -0.8270
-0.8279 -0.8341 -0.8550 -0.8895 -0.9203 -0.9613
-1.0051 -1.0465 -1.0788 -1.0969 -1.1087 -1.1133
-1.1283 -1.1420 -1.1650 -1.1933 -1.2222 -1.2486
-1.2744 -1.3008 -1.3322 -1.3686 -1.3854 -1.3988
-1.3932 -1.3885 -1.3857 -1.3839 -1.3860 -1.3823
-1.3767 -1.3692 -1.3574 -1.3456 -1.3413 -1.3347
-1.3319 -1.3276 -1.3136 -1.2847 -1.2464 -1.2116
-1.1793 -1.1550 -1.1270 -1.0838 -1.0201 -0.9386
-0.8596 -0.7925 -0.7468 -0.7014 -0.6547 -0.6016
-0.5363 -0.4644 -0.3864 -0.3152 -0.2468 -0.1799
-0.1215 -0.0615 0.0023 0.0614 0.1304 0.2053
0.2834 0.3679 0.4503 0.5271 0.6014 0.6683
0.7379 0.8039 0.8878 0.9811 1.0790 1.1739
1.2522 1.3275 1.3965 1.4820 1.5765 1.6801
1.7814 1.8819 1.9689 2.0364 2.0837 2.1256
2.1766 2.2279 2.2861 2.3361 2.3784 2.4067
2.4294 2.4509 2.4832 2.5289 2.5690 2.5989
2.6141 2.6213 2.6272 2.6262 2.6281 2.6365
2.6502 2.6642 2.6744 2.6803 2.6844 2.6869
2.6847 2.6866 2.6822 2.6782 2.6639 2.6421
2.6035 2.5547 2.5075 2.4468 2.3831 2.3175
2.2478 2.1732 2.0970 2.0162 1.9338 1.8502
1.7771 1.7028 1.6331 1.5613 1.4907 1.4273
1.3766 1.3349 1.2849 1.2267 1.1568 1.1077
1.0647 1.0389 1.0175 0.9867 0.9475 0.9111
0.8891 0.8664 0.8524 0.8256 0.7883 0.7482
0.7118 0.6950 0.6863 0.6823 0.6602 0.6285
0.5912 0.5365 0.5060 0.4721 0.4360 0.4022
0.3636 0.3244 0.2828 0.2374 0.1851 0.1329
0.0791 0.0412 0.0135 -0.0111 -0.0384 -0.0627
-0.0820 -0.0932 -0.1025 -0.1155 -0.1227 -0.1348
-0.1466 -0.1690 -0.1967 -0.2256 -0.2576 -0.2866
-0.3061 -0.3121 -0.3145 -0.3065 -0.3080 -0.3117
-0.3205 -0.3298 -0.3270 -0.3117 -0.2878 -0.2576
-0.2275 -0.2160 -0.2098 -0.2228 -0.2496 -0.2803
-0.3127 -0.3388 -0.3565 -0.3668 -0.3842 -0.4178
-0.4622 -0.5176 -0.5648 -0.6015 -0.6357 -0.6600
-0.6808 -0.7057 -0.7309 -0.7614 -0.7921 -0.8049
-0.8192 -0.8301 -0.8506 -0.8752 -0.9031 -0.9271
-0.9417 -0.9554 -0.9641 -0.9740 -0.9765 -0.9787
-0.9675 -0.9575 -0.9439 -0.9215 -0.8954 -0.8528
-0.8077 -0.7750 -0.7424 -0.7113 -0.6911 -0.6662
-0.6457 -0.6174 -0.5891 -0.5689 -0.5561 -0.5639
-0.5823 -0.6071 -0.6273 -0.6435 -0.6631 -0.6855
-0.6939 -0.6982 -0.6901 -0.6783 -0.6715 -0.6622
-0.6715 -0.6858 -0.7044 -0.7113 -0.6992 -0.6827
-0.6771 -0.6811 -0.6908 -0.6976 -0.7035 -0.7088
-0.7153 -0.7234 -0.7331 -0.7561 -0.7794 -0.8002
-0.8027 -0.7977 -0.7803 -0.7632 -0.7495 -0.7402
-0.7299 -0.7184 -0.7016 -0.6824 -0.6618 -0.6308
-0.6199 -0.6046 -0.5950 -0.5785 -0.5639 -0.5515
-0.5291 -0.5039 -0.4719 -0.4364 -0.3960 -0.3599
-0.3226 -0.2897 -0.2617 -0.2433 -0.2129 -0.1824
-0.1519 -0.1311 -0.1183 -0.1084 -0.0851 -0.0459
0.0011 0.0570 0.1021 0.1394 0.1621 0.1876
0.2063 0.2414 0.2756 0.3139 0.3425 0.3558
0.3698 0.3686 0.3869 0.4171 0.4675 0.5247
0.5844 0.6422 0.6966 0.7538 0.8135 0.8726
0.9276 0.9880 1.0418 1.0996 1.1664 1.2420
1.3079 1.3592 1.4121 1.4522 1.5063 1.5769
1.6481 1.7180 1.7734 1.8225 1.8667 1.9080
1.9512 1.9814 2.0137 2.0408 2.0653 2.0871
2.1008 2.1104 2.1114 2.1154 2.1151 2.1163
2.1167 2.1250 2.1266 2.1275 2.1142 2.0936
2.0685 2.0349 2.0140 1.9932 1.9767 1.9450
1.9065 1.8611 1.8163 1.7709 1.7383 1.7128
1.6801 1.6394 1.5825 1.5225 1.4721 1.4323
1.3897 1.3399 1.2874 1.2246 1.1596 1.1021
1.0511 1.0132 0.9696 0.9233 0.8599 0.7862
0.7094 0.6338 0.5664 0.5138 0.4718 0.4255
0.3757 0.3167 0.2629 0.2069 0.1562 0.0987
0.0362 -0.0344 -0.1096 -0.1746 -0.2436 -0.3099
-0.3826 -0.4544 -0.5200 -0.5773 -0.6146 -0.6391
-0.6643 -0.6985 -0.7371 -0.7809 -0.8161 -0.8484
-0.8795 -0.8957 -0.9128 -0.9283 -0.9473 -0.9740
-1.0026 -1.0272 -1.0511 -1.0757 -1.1030 -1.1407
-1.1851 -1.2358 -1.2862 -1.3359 -1.3854 -1.4264
-1.4612 -1.4827 -1.4957 -1.5116 -1.5327 -1.5542
-1.5710 -1.5819 -1.5924 -1.6095 -1.6266 -1.6478
-1.6640 -1.6730 -1.6711 -1.6633 -1.6518 -1.6400
-1.6279 -1.6161 -1.5996 -1.5732 -1.5424 -1.5048
-1.4587 -1.4109 -1.3680 -1.3257 -1.2890 -1.2489
-1.1994 -1.1273 -1.0461 -0.9700 -0.9168 -0.8838
-0.8577 -0.8353 -0.8030 -0.7616 -0.7150 -0.6665
-0.6226 -0.5940 -0.5685 -0.5427 -0.5179 -0.5026
-0.5004 -0.5060 -0.4980 -0.4669 -0.4252 -0.3804
-0.3481 -0.3301 -0.3226 -0.3170 -0.3120 -0.3027
-0.2977 -0.3015 -0.3092 -0.3173 -0.3102 -0.2893
-0.2545 -0.2135 -0.1702 -0.1326 -0.1043 -0.0807
-0.0614 -0.0362 -0.0033 0.0356 0.0819 0.1149
0.1348 0.1385 0.1273 0.1136 0.0959 0.0773
0.0564 0.0368 0.0179 -0.0048 -0.0384 -0.0667
-0.0975 -0.1255 -0.1559 -0.1883 -0.2206 -0.2576
-0.3070 -0.3742 -0.4414 -0.4964 -0.5256 -0.5418
-0.5474 -0.5552 -0.5667 -0.5794 -0.5859 -0.5903
-0.5953 -0.6058 -0.6257 -0.6550 -0.6873 -0.7277
-0.7672 -0.7989 -0.8331 -0.8624 -0.8922 -0.9233
-0.9703 -1.0197 -1.0778 -1.1416 -1.1966 -1.2401
-1.2653 -1.2843 -1.3042 -1.3253 -1.3602 -1.3922
-1.4143 -1.4354 -1.4566 -1.4771 -1.5010 -1.5228
-1.5337 -1.5533 -1.5679 -1.5775 -1.5800 -1.5840
-1.5927 -1.5983 -1.6002 -1.5983 -1.5949 -1.5853
-1.5868 -1.5927 -1.5940 -1.5915 -1.5788 -1.5620
-1.5523 -1.5498 -1.5455 -1.5396 -1.5191 -1.4901
-1.4528 -1.4171 -1.3794 -1.3390 -1.2933 -1.2345
-1.1817 -1.1273 -1.0763 -1.0172 -0.9569 -0.8903
-0.8219 -0.7529 -0.6767 -0.6058 -0.5334 -0.4656
-0.4059 -0.3481 -0.2921 -0.2287 -0.1519 -0.0583
0.0425 0.1314 0.2175 0.3002 0.3848 0.4765
0.5822 0.6963 0.8210 0.9485 1.0741 1.1854
1.2877 1.3844 1.4746 1.5651 1.6441 1.7218
1.7942 1.8676 1.9444 2.0243 2.0974 2.1748
2.2420 2.3023 2.3648 2.4248 2.4976 2.5660
2.6415 2.7071 2.7578 2.8048 2.8452 2.8962
2.9525 3.0131 3.0691 3.1101 3.1480 3.1742
3.2022 3.2264 3.2550 3.2855 3.3079 3.3278
3.3253 3.3181 3.3184 3.3166 3.3178 3.3135
3.3023 3.2942 3.2814 3.2715 3.2603 3.2472
3.2289 3.1934 3.1505 3.1027 3.0554 3.0293
3.0134 3.0032 2.9826 2.9466 2.8984 2.8471
2.7927 2.7414 2.6969 2.6524 2.6148 2.5635
2.5128 2.4559 2.4031 2.3371 2.2666 2.2062
2.1490 2.1105 2.0732 2.0349 1.9864 1.9286
1.8624 1.7964 1.7361 1.6826 1.6282 1.5679
1.4961 1.4211 1.3484 1.2775 1.2072 1.1298
1.0483 0.9653 0.8876 0.8164 0.7517 0.6821
0.6099 0.5372 0.4641 0.4047 0.3497 0.2943
0.2374 0.1815 0.1267 0.0708 0.0086 -0.0592
-0.1254 -0.1914 -0.2467 -0.2992 -0.3453 -0.4019
-0.4690 -0.5396 -0.6102 -0.6773 -0.7429 -0.8082
-0.8810 -0.9538 -1.0380 -1.1245 -1.2162 -1.3082
-1.4046 -1.4954 -1.5862 -1.6680 -1.7420 -1.8076
-1.8620 -1.9117 -1.9565 -2.0032 -2.0467 -2.0918
-2.1313 -2.1723 -2.2022 -2.2245 -2.2479 -2.2774
-2.3029 -2.3324 -2.3489 -2.3573 -2.3635 -2.3673
-2.3806 -2.3949 -2.4111 -2.4182 -2.4217 -2.4217
-2.4266 -2.4325 -2.4447 -2.4521 -2.4462 -2.4347
-2.4186 -2.4015 -2.3893 -2.3763 -2.3626 -2.3411
-2.3091 -2.2665 -2.2230 -2.1872 -2.1636 -2.1452
-2.1257 -2.0992 -2.0610 -2.0252 -1.9860 -1.9553
-1.9276 -1.9018 -1.8782 -1.8567 -1.8331 -1.8203
-1.8017 -1.7839 -1.7678 -1.7410 -1.7075 -1.6804
-1.6568 -1.6384 -1.6235 -1.6048 -1.5930 -1.5750
-1.5557 -1.5395 -1.5256 -1.5119 -1.5035 -1.4823
-1.4739 -1.4553 -1.4388 -1.4158 -1.3906 -1.3695
-1.3542 -1.3480 -1.3393 -1.3390 -1.3340 -1.3278
-1.3157 -1.3110 -1.2955 -1.2833 -1.2659 -1.2538
-1.2379 -1.2249 -1.2009 -1.1770 -1.1459 -1.1235
-1.1151 -1.1070 -1.1027 -1.0815 -1.0539 -1.0187
-0.9979 -0.9718 -0.9643 -0.9491 -0.9410 -0.9276
-0.9062 -0.8791 -0.8539 -0.8334 -0.8132 -0.7874
-0.7544 -0.7218 -0.6811 -0.6459 -0.5878 -0.5306
-0.4637 -0.4018 -0.3552 -0.3198 -0.2818 -0.2374
-0.1758 -0.0953 -0.0113 0.0627 0.1423 0.2007
0.2617 0.3453 0.4355 0.5322 0.6273 0.7278
0.7962 0.8522 0.9268 0.9977 1.0670 1.1544
1.2253 1.3176 1.3742 1.4236 1.5026 1.5545
1.6052 1.6855 1.7417 1.7993 1.8530 1.9025
1.9942 2.0474 2.1161 2.2013 2.2800 2.3449
2.4022 2.4594 2.5066 2.5209 2.5424 2.5669
2.5763 2.5971 2.6198 2.6437 2.6696 2.6932
2.7199 2.7386 2.7442 2.7684 2.7945 2.8281
2.8515 2.8714 2.8779 2.8794 2.8692 2.8549
2.8505 2.8580 2.8661 2.8642 2.8505 2.8235
2.7970 2.7628 2.7414 2.7134 2.6842 2.6546
2.6173 2.5769 2.5402 2.4889 2.4273 2.3586
2.2793 2.2196 2.1618 2.1133 2.0567 1.9967
1.9311 1.8655 1.7955 1.7293 1.6631 1.5912
1.5232 1.4439 1.3742 1.2912 1.2231 1.1385
1.0608 0.9607 0.8845 0.7937 0.7231 0.6451
0.5770 0.4952 0.4088 0.3226 0.1865 0.1855
-0.0001 -0.1018 -0.1270 -0.2053 -0.2675 -0.3692
-0.4360 -0.5100 -0.5595 -0.6260 -0.6699 -0.7264
-0.7731 -0.8272 -0.8816 -0.9478 -1.0047 -1.0535
-1.0977 -1.1425 -1.1844 -1.2186 -1.2616 -1.2995
-1.3368 -1.3707 -1.4043 -1.4341 -1.4553 -1.4714
-1.4888 -1.4991 -1.5078 -1.5047 -1.5022 -1.4979
-1.5019 -1.5109 -1.5249 -1.5411 -1.5597 -1.5712
-1.5796 -1.5849 -1.5771 -1.5759 -1.5700 -1.5778
-1.5896 -1.6005 -1.6110 -1.6079 -1.6076 -1.5986
-1.5871 -1.5684 -1.5548 -1.5439 -1.5451 -1.5635
-1.5914 -1.6204 -1.6403 -1.6555 -1.6658 -1.6804
-1.6922 -1.7077 -1.7118 -1.7115 -1.7115 -1.7096
-1.7037 -1.6950 -1.6875 -1.6822 -1.6754 -1.6826
-1.6937 -1.7018 -1.7018 -1.6885 -1.6670 -1.6465
-1.6344 -1.6166 -1.5998 -1.5790 -1.5548 -1.5271
-1.5000 -1.4724 -1.4372 -1.3996 -1.3651 -1.3284
-1.2976 -1.2752 -1.2587 -1.2463 -1.2395 -1.2323
-1.2193 -1.2006 -1.1835 -1.1717 -1.1664 -1.1782
-1.1931 -1.2012 -1.2059 -1.2078 -1.2006 -1.1879
-1.1642 -1.1393 -1.1145 -1.0940 -1.0824 -1.0694
-1.0551 -1.0349 -1.0162 -1.0007 -0.9945 -1.0032
-1.0199 -1.0277 -1.0265 -1.0175 -1.0106 -1.0044
-1.0016 -0.9982 -1.0000 -1.0053 -1.0119 -1.0262
-1.0361 -1.0464 -1.0601 -1.0681 -1.0713 -1.0716
-1.0669 -1.0613 -1.0467 -1.0336 -1.0094 -0.9777
-0.9382 -0.8881 -0.8374 -0.7958 -0.7628 -0.7280
-0.6838 -0.6266 -0.5548 -0.4755 -0.4043 -0.3362
-0.2793 -0.2230 -0.1689 -0.1120 -0.0514 0.0158
0.0823 0.1619 0.2393 0.3236 0.4125 0.4968
0.5770 0.6370 0.6973 0.7552 0.8310 0.9212
1.0185 1.1059 1.1917 1.2682 1.3431 1.4203
1.4964 1.5795 1.6625 1.7592 1.8543 1.9476
2.0368 2.1248 2.2147 2.3123 2.4128 2.5085
2.6002 2.6817 2.7557 2.8310 2.8994 2.9640
3.0222 3.0753 3.1335 3.1876 3.2473 3.3129
3.3710 3.4217 3.4699 3.5088 3.5430 3.5713
3.5868 3.6036 3.6145 3.6282 3.6403 3.6419
3.6325 3.6111 3.5890 3.5585 3.5299 3.4917
3.4538 3.4090 3.3627 3.3117 3.2576 3.1966
3.1173 3.0471 2.9783 2.9255 2.8708 2.8185
2.7573 2.6954 2.6304 2.5636 2.4976 2.4311
2.3798 2.3300 2.2840 2.2218 2.1491 2.0738
2.0048 1.9544 1.9258 1.8969 1.8668 1.8279
1.7800 1.7380 1.7001 1.6563 1.6168 1.5673
1.5095 1.4489 1.3811 1.3270 1.2729 1.2346
1.1955 1.1581 1.1062 1.0462 0.9747 0.8979
0.8286 0.7605 0.7026 0.6398 0.5839 0.5288
0.4785 0.4259 0.3780 0.3385 0.3046 0.2707
0.2347 0.1915 0.1370 0.0895 0.0450 0.0155
-0.0085 -0.0427 -0.0859 -0.1338 -0.1751 -0.2093
-0.2401 -0.2805 -0.3206 -0.3741 -0.4149 -0.4453
-0.4789 -0.5060 -0.5501 -0.6020 -0.6589 -0.7180
-0.7718 -0.8172 -0.8607 -0.8937 -0.9332 -0.9792
-1.0333 -1.0908 -1.1502 -1.2018 -1.2485 -1.2976
-1.3495 -1.4136 -1.4751 -1.5345 -1.5836 -1.6275
-1.6713 -1.7192 -1.7584 -1.8004 -1.8290 -1.8548
-1.8663 -1.8741 -1.8840 -1.8884 -1.9002 -1.9083
-1.9313 -1.9561 -1.9941 -2.0236 -2.0538 -2.0690
-2.0861 -2.0945 -2.1041 -2.1312 -2.1589 -2.2030
-2.2341 -2.2584 -2.2671 -2.2804 -2.2857 -2.3047
-2.3140 -2.3215 -2.3209 -2.3003 -2.2882 -2.2689
-2.2571 -2.2406 -2.2273 -2.2089 -2.1921 -2.1757
-2.1648 -2.1545 -2.1480 -2.1415 -2.1275 -2.1082
-2.0821 -2.0609 -2.0438 -2.0329 -2.0301 -2.0292
-2.0345 -2.0379 -2.0388 -2.0354 -2.0171 -1.9897
-1.9540 -1.9306 -1.9117 -1.9008 -1.8753 -1.8395
-1.7913 -1.7441 -1.7033 -1.6648 -1.6312 -1.5917
-1.5606 -1.5044 -1.4577 -1.4145 -1.3741 -1.3452
-1.3144 -1.2889 -1.2528 -1.2065 -1.1617 -1.1032
-1.0364 -1.0028 -0.9599 -0.9176 -0.8750 -0.8184
-0.7622 -0.6807 -0.6194 -0.5740 -0.5246 -0.4907
-0.4543 -0.4096 -0.3666 -0.3026 -0.2485 -0.2012
-0.1347 -0.0884 -0.0377 0.0065 0.0587 0.1131
0.1542 0.2095 0.2705 0.3090 0.3473 0.3899
0.4290 0.4794 0.5267 0.5817 0.6296 0.6703
0.7123 0.7645 0.8074 0.8485 0.8771 0.9023
0.9340 0.9701 1.0151 1.0633 1.1013 1.1240
1.1492 1.1532 1.1687 1.1858 1.2089 1.2356
1.2676 1.2962 1.3279 1.3637 1.4004 1.4458
1.4738 1.5077 1.5201 1.5288 1.5322 1.5350
1.5487 1.5789 1.6180 1.6519 1.6768 1.6787
1.6697 1.6460 1.6314 1.6227 1.6243 1.6333
1.6383 1.6460 1.6538 1.6522 1.6479 1.6404
1.6299 1.6323 1.6426 1.6466 1.6367 1.6090
1.5714 1.5391 1.5089 1.4884 1.4657 1.4532
1.4296 1.4016 1.3833 1.3665 1.3575 1.3432
1.3248 1.3012 1.2810 1.2546 1.2390 1.2260
1.2225 1.2232 1.2210 1.2098 1.1914 1.1771
1.1684 1.1737 1.1712 1.1656 1.1473 1.1234
1.0929 1.0696 1.0525 1.0385 1.0294 1.0139
0.9893 0.9688 0.9530 0.9399 0.9284 0.9088
0.8998 0.8886 0.8811 0.8687 0.8519 0.8339
0.8190 0.8087 0.7987 0.7922 0.7739 0.7605
0.7468 0.7350 0.7201 0.7061 0.6871 0.6619
0.6364 0.6106 0.5886 0.5718 0.5612 0.5475
0.5289 0.4900 0.4443 0.3883 0.3392 0.2873
0.2428 0.2030 0.1638 0.1324 0.1026 0.0736
0.0373 0.0052 -0.0370 -0.0824 -0.1341 -0.1763
-0.2192 -0.2637 -0.3110 -0.3641 -0.4217 -0.4714
-0.5115 -0.5504 -0.5843 -0.6197 -0.6480 -0.6878
-0.7292 -0.7789 -0.8299 -0.8766 -0.9266 -0.9745
-1.0081 -1.0336 -1.0609 -1.0864 -1.1234 -1.1642
-1.2105 -1.2556 -1.3019 -1.3442 -1.3809 -1.4107
-1.4362 -1.4636 -1.4838 -1.4959 -1.4922 -1.4950
-1.4994 -1.5189 -1.5388 -1.5479 -1.5454 -1.5239
-1.4990 -1.4773 -1.4714 -1.4673 -1.4624 -1.4362
-1.4002 -1.3641 -1.3386 -1.3224 -1.3128 -1.2951
-1.2668 -1.2292 -1.1859 -1.1573 -1.1402 -1.1443
-1.1505 -1.1530 -1.1446 -1.1290 -1.1079 -1.0899
-1.0765 -1.0650 -1.0466 -1.0289 -1.0112 -0.9978
-0.9907 -0.9770 -0.9583 -0.9347 -0.9092 -0.8762
-0.8498 -0.8221 -0.8001 -0.7668 -0.7298 -0.6835
-0.6368 -0.5945 -0.5476 -0.5115 -0.4770 -0.4493
-0.4098 -0.3666 -0.3091 -0.2581 -0.2115 -0.1651
-0.1294 -0.0924 -0.0656 -0.0417 -0.0209 0.0046
0.0329 0.0606 0.0870 0.1141 0.1306 0.1418
0.1442 0.1430 0.1486 0.1508 0.1526 0.1498
0.1396 0.1330 0.1312 0.1315 0.1436 0.1598
0.1834 0.2099 0.2325 0.2441 0.2627 0.2820
0.2823 0.2807 0.2758 0.2664 0.2699 0.2926
0.3252 0.3672 0.4029 0.4371 0.4661 0.4922
0.5254 0.5438 0.5481 0.5935 0.6377 0.6529
0.6763 0.7011 0.7185 0.7419 0.7726 0.8044
0.8473 0.8740 0.9166 0.9452 0.9819 1.0086
1.0276 1.0733 1.0761 1.0786 1.1019 1.1355
1.1632 1.1933 1.2070 1.2167 1.2263 1.2322
1.2390 1.2397 1.2334 1.2207 1.2204 1.2182
1.2244 1.2294 1.2369 1.2412 1.2459 1.2462
1.2406 1.2356 1.2288 1.2319 1.2369 1.2465
1.2552 1.2655 1.2804 1.2935 1.3043 1.3109
1.3171 1.3227 1.3298 1.3385 1.3445 1.3560
1.3715 1.3796 1.3771 1.3622 1.3382 1.3102
1.2810 1.2571 1.2406 1.2319 1.2191 1.1996
1.1716 1.1420 1.1075 1.0674 1.0254 0.9738
0.9197 0.8700 0.8208 0.7705 0.7254 0.6744
0.6243 0.5637 0.4906 0.4120 0.3206 0.2295
0.1427 0.0659 -0.0025 -0.0619 -0.1238 -0.1922
-0.2699 -0.3523 -0.4269 -0.4991 -0.5616 -0.6247
-0.6803 -0.7310 -0.7739 -0.8153 -0.8647 -0.9160
-0.9695 -1.0217 -1.0724 -1.1160 -1.1579 -1.1940
-1.2357 -1.2814 -1.3268 -1.3759 -1.4179 -1.4561
-1.4922 -1.5254 -1.5575 -1.5864 -1.6169 -1.6408
-1.6707 -1.7058 -1.7375 -1.7773 -1.8280 -1.8703
-1.9048 -1.9443 -1.9838 -2.0117 -2.0344 -2.0711
-2.1056 -2.1448 -2.1877 -2.2403 -2.2823 -2.3006
-2.3112 -2.3196 -2.3105 -2.3028 -2.3018 -2.2972
-2.2872 -2.2540 -2.2173 -2.1815 -2.1395 -2.1041
-2.0749 -2.0391 -2.0030 -1.9604 -1.9185 -1.8482
-1.7664 -1.6893 -1.6172 -1.5534 -1.4937 -1.4347
-1.3690 -1.2935 -1.2111 -1.1418 -1.0724 -1.0202
-0.9717 -0.9210 -0.8666 -0.8031 -0.7406 -0.6869
-0.6530 -0.6324 -0.6206 -0.6063 -0.5790 -0.5482
-0.5115 -0.4776 -0.4366 -0.3915 -0.3383 -0.2867
-0.2444 -0.2167 -0.1978 -0.1539 -0.1032 -0.0398
0.0143 0.0513 0.0737 0.0827 0.0951 0.1222
0.1691 0.2323 0.2988 0.3644 0.4260 0.4823
0.5367 0.5892 0.6402 0.6937 0.7549 0.8268
0.9014 0.9735 1.0463 1.1085 1.1741 1.2335
1.3031 1.3659 1.4266 1.4894 1.5509 1.6165
1.6725 1.7173 1.7583 1.8068 1.8510 1.9045
1.9523 2.0015 2.0484 2.0966 2.1429 2.1862
2.2247 2.2630 2.3000 2.3348 2.3628 2.3923
2.4191 2.4492 2.4906 2.5201 2.5515 2.5699
2.5904 2.6041 2.6196 2.6311 2.6401 2.6445
2.6445 2.6383 2.6299 2.6208 2.6069 2.5957
2.5761 2.5639 2.5444 2.5282 2.5092 2.4940
2.4725 2.4576 2.4383 2.4153 2.4187 2.4147
2.4010 2.3755 2.3391 2.2965 2.2465 2.2005
2.1656 2.1349 2.1025 2.0627 2.0164 1.9694
1.9132 1.8584 1.8087 1.7577 1.7036 1.6539
1.6131 1.5506 1.4881 1.4424 1.3989 1.3538
1.3212 1.2789 1.2341 1.1843 1.1240 1.0631
1.0037 0.9505 0.8995 0.8638 0.8311 0.7944
0.7431 0.6785 0.6010 0.5342 0.4816 0.4446
0.4058 0.3629 0.3140 0.2655 0.2229 0.1884
0.1623 0.1387 0.1238 0.1063 0.0824 0.0476
0.0159 -0.0177 -0.0463 -0.0874 -0.1253 -0.1685
-0.2117 -0.2497 -0.2857 -0.3274 -0.3734 -0.4173
-0.4589 -0.4798 -0.5000 -0.5140 -0.5382 -0.5718
-0.6169 -0.6645 -0.7098 -0.7515 -0.7879 -0.8168
-0.8442 -0.8877 -0.9347 -0.9906 -1.0475 -1.0991
-1.1507 -1.2061 -1.2655 -1.3252 -1.3843 -1.4393
-1.4918 -1.5503 -1.6134 -1.6722 -1.7347 -1.8028
-1.8678 -1.9306 -1.9847 -2.0378 -2.0882 -2.1367
-2.1924 -2.2399 -2.2850 -2.3248 -2.3584 -2.3963
-2.4290 -2.4632 -2.5017 -2.5403 -2.5726 -2.5916
-2.6065 -2.6146 -2.6292 -2.6426 -2.6622 -2.6877
-2.7172 -2.7418 -2.7636 -2.7831 -2.7996 -2.8282
-2.8512 -2.8693 -2.8621 -2.8438 -2.8083 -2.7772
-2.7604 -2.7570 -2.7558 -2.7424 -2.7157 -2.6749
-2.6367 -2.6009 -2.5723 -2.5359 -2.4993 -2.4508
-2.3982 -2.3559 -2.3186 -2.2853 -2.2505 -2.2123
-2.1731 -2.1227 -2.0733 -2.0235 -1.9819 -1.9411
-1.8979 -1.8367 -1.7620 -1.6855 -1.6078 -1.5490
-1.4903 -1.4362 -1.3628 -1.2876 -1.2139 -1.1476
-1.0904 -1.0413 -0.9981 -0.9489 -0.8939 -0.8299
-0.7596 -0.6902 -0.6231 -0.5587 -0.4944 -0.4238
-0.3560 -0.2907 -0.2326 -0.1816 -0.1387 -0.0923
-0.0454 0.0112 0.0725 0.1427 0.2105 0.2746
0.3296 0.3797 0.4319 0.4826 0.5354 0.5728
0.6070 0.6294 0.6449 0.6548 0.6670 0.6769
0.6838 0.6881 0.6890 0.6940 0.6940 0.7142
0.7136 0.7264 0.7643 0.7798 0.7802 0.7652
0.7528 0.7447 0.7540 0.7659 0.7686 0.7646
0.7624 0.7568 0.7599 0.7528 0.7410 0.7298
0.7077 0.6869 0.6580 0.6343 0.6113 0.5871
0.5603 0.5351 0.5146 0.5056 0.4929 0.4863
0.4907 0.5019 0.5078 0.4975 0.4807 0.4555
0.4356 0.4198 0.4157 0.4123 0.4086 0.4008
0.3930 0.3902 0.3865 0.3915 0.3902 0.3902
0.3856 0.3775 0.3700 0.3635 0.3666 0.3685
0.3676 0.3598 0.3511 0.3393 0.3337 0.3383
0.3470 0.3632 0.3741 0.3856 0.3965 0.4108
0.4260 0.4344 0.4360 0.4353 0.4440 0.4643
0.4925 0.5174 0.5361 0.5544 0.5675 0.5799
0.5976 0.6154 0.6412 0.6636 0.6856 0.7015
0.7164 0.7376 0.7628 0.7876 0.8004 0.8100
0.8147 0.8262 0.8358 0.8423 0.8427 0.8355
0.8228 0.8113 0.8022 0.8022 0.8066 0.8156
0.8200 0.8215 0.8225 0.8187 0.8296 0.8439
0.8657 0.8849 0.9055 0.9195 0.9381 0.9546
0.9761 0.9935 1.0118 1.0261 1.0466 1.0709
1.0889 1.1147 1.1281 1.1412 1.1477 1.1607
1.1642 1.1788 1.1918 1.2089 1.2273 1.2313
1.2316 1.2298 1.2276 1.2236 1.2226 1.2189
1.2142 1.2089 1.2052 1.2005 1.2024 1.2089
1.2161 1.2117 1.2114 1.2058 1.2065 1.2167
1.2326 1.2478 1.2606 1.2565 1.2550 1.2540
1.2547 1.2767 1.2966 1.3277 1.3538 1.3768
1.4014 1.4272 1.4487 1.4708 1.4857 1.4916
1.4981 1.4972 1.5068 1.5208 1.5301 1.5401
1.5370 1.5314 1.5258 1.5249 1.5230 1.5171
1.5081 1.4972 1.4813 1.4577 1.4449 1.4316
1.4254 1.4058 1.3902 1.3713 1.3501 1.3283
1.3025 1.2892 1.2702 1.2515 1.2279 1.2062
1.1769 1.1486 1.1259 1.1042 1.0840 1.0566
1.0305 1.0075 0.9754 0.9403 0.8993 0.8582
0.8197 0.7761 0.7279 0.6763 0.6126 0.5495
0.4873 0.4260 0.3769 0.3284 0.2802 0.2202
0.1614 0.0980 0.0364 -0.0258 -0.0820 -0.1448
-0.2126 -0.2876 -0.3672 -0.4412 -0.5099 -0.5690
-0.6249 -0.6762 -0.7322 -0.7851 -0.8457 -0.9057
-0.9707 -1.0226 -1.0811 -1.1314 -1.1821 -1.2241
-1.2617 -1.3043 -1.3385 -1.3746 -1.3973 -1.4187
-1.4234 -1.4262 -1.4284 -1.4383 -1.4570 -1.4896
-1.5226 -1.5559 -1.5748 -1.5829 -1.5851 -1.5835
-1.5932 -1.6121 -1.6330 -1.6507 -1.6622 -1.6675
-1.6777 -1.6877 -1.7088 -1.7216 -1.7365 -1.7433
-1.7502 -1.7567 -1.7692 -1.7891 -1.8124 -1.8419
-1.8519 -1.8515 -1.8372 -1.8217 -1.8139 -1.8245
-1.8360 -1.8404 -1.8301 -1.8049 -1.7844 -1.7570
-1.7427 -1.7247 -1.7119 -1.7060 -1.6849 -1.6647
-1.6426 -1.6292 -1.6249 -1.6249 -1.6211 -1.6112
-1.5941 -1.5782 -1.5642 -1.5540 -1.5453 -1.5338
-1.5179 -1.4961 -1.4728 -1.4452 -1.4290 -1.4249
-1.4392 -1.4632 -1.4759 -1.4778 -1.4635 -1.4414
-1.4296 -1.4172 -1.4054 -1.3932 -1.3752 -1.3556
-1.3432 -1.3357 -1.3286 -1.3152 -1.2925 -1.2661
-1.2328 -1.2036 -1.1672 -1.1289 -1.0870 -1.0453
-1.0077 -0.9654 -0.9138 -0.8587 -0.8065 -0.7549
-0.7061 -0.6582 -0.6106 -0.5661 -0.5270 -0.4794
-0.4268 -0.3634 -0.2919 -0.2229 -0.1647 -0.1215
-0.0876 -0.0562 -0.0142 0.0371 0.0909 0.1437
0.1972 0.2519 0.3070 0.3564 0.3962 0.4335
0.4677 0.5056 0.5442 0.5846 0.6297 0.6832
0.7370 0.7821 0.8262 0.8607 0.8959 0.9285
0.9702 1.0159 1.0687 1.1151 1.1580 1.1968
1.2320 1.2761 1.3119 1.3498 1.3787 1.4114
1.4499 1.4866 1.5267 1.5585 1.5768 1.5930
1.6020 1.6147 1.6322 1.6620 1.6925 1.7189
1.7388 1.7450 1.7404 1.7270 1.7173 1.7043
1.7018 1.6925 1.6822 1.6617 1.6505 1.6393
1.6381 1.6387 1.6284 1.6185 1.5902 1.5681
1.5355 1.5103 1.4838 1.4565 1.4310 1.4151
1.4030 1.3899 1.3784 1.3520 1.3262 1.2939
1.2681 1.2426 1.2174 1.1934 1.1639 1.1344
1.1001 1.0719 1.0411 1.0150 0.9882 0.9590
0.9329 0.9071 0.8809 0.8542 0.8262 0.7985
0.7724 0.7438 0.7196 0.6919 0.6580 0.6204
0.5765 0.5259 0.4808 0.4397 0.4117 0.3788
0.3561 0.3318 0.3150 0.3001 0.2740 0.2507
0.2177 0.2003 0.1820 0.1705 0.1496 0.1322
0.1092 0.0921 0.0815 0.0756 0.0753 0.0722
0.0725 0.0570 0.0439 0.0166 -0.0096 -0.0366
-0.0484 -0.0487 -0.0484 -0.0534 -0.0690 -0.0885
-0.1143 -0.1314 -0.1458 -0.1479 -0.1526 -0.1647
-0.1793 -0.1933 -0.2082 -0.2135 -0.2204 -0.2303
-0.2415 -0.2533 -0.2692 -0.2819 -0.2906 -0.2910
-0.2801 -0.2779 -0.2717 -0.2757 -0.2726 -0.2701
-0.2692 -0.2676 -0.2714 -0.2773 -0.2838 -0.2832
-0.2785 -0.2645 -0.2536 -0.2474 -0.2471 -0.2474
-0.2443 -0.2424 -0.2428 -0.2474 -0.2549 -0.2567
-0.2577 -0.2543 -0.2502 -0.2490 -0.2459 -0.2446
-0.2446 -0.2446 -0.2421 -0.2421 -0.2387 -0.2356
-0.2381 -0.2387 -0.2437 -0.2428 -0.2462 -0.2493
-0.2574 -0.2623 -0.2589 -0.2474 -0.2281 -0.2219
-0.2095 -0.2054 -0.1930 -0.1796 -0.1576 -0.1395
-0.1262 -0.1165 -0.1134 -0.1097 -0.1069 -0.0957
-0.0870 -0.0696 -0.0649 -0.0577 -0.0506 -0.0388
-0.0332 -0.0372 -0.0472 -0.0590 -0.0633 -0.0649
-0.0674 -0.0720 -0.0783 -0.0873 -0.0985 -0.1103
-0.1206 -0.1308 -0.1426 -0.1544 -0.1594 -0.1663
-0.1694 -0.1849 -0.2005 -0.2232 -0.2400 -0.2505
-0.2630 -0.2807 -0.3034 -0.3267 -0.3538 -0.3696
-0.3805 -0.3839 -0.3917 -0.4032 -0.4209 -0.4365
-0.4523 -0.4663 -0.4803 -0.4977 -0.5179 -0.5322
-0.5419 -0.5518 -0.5587 -0.5680 -0.5820 -0.6006
-0.6128 -0.6224 -0.6156 -0.6072 -0.6009 -0.5966
-0.6016 -0.5966 -0.5863 -0.5677 -0.5490 -0.5388
-0.5391 -0.5496 -0.5686 -0.5873 -0.5941 -0.5866
-0.5562 -0.5192 -0.4822 -0.4573 -0.4361 -0.4128
-0.3842 -0.3478 -0.3171 -0.2760 -0.2406 -0.1967
-0.1613 -0.1311 -0.1050 -0.0895 -0.0745 -0.0559
-0.0270 0.0088 0.0442 0.0660 0.0949 0.1108
0.1220 0.1313 0.1344 0.1447 0.1599 0.1839
0.2156 0.2464 0.2712 0.2871 0.2977 0.3079
0.3256 0.3552 0.3857 0.4090 0.4205 0.4205
0.4189 0.4236 0.4385 0.4640 0.4808 0.4995
0.5088 0.5147 0.5209 0.5293 0.5464 0.5604
0.5716 0.5800 0.5874 0.5983 0.6077 0.6145
0.6285 0.6332 0.6459 0.6543 0.6574 0.6580
0.6478 0.6260 0.5971 0.5731 0.5588 0.5470
0.5312 0.5138 0.4827 0.4544 0.4292 0.4049
0.3903 0.3838 0.3776 0.3704 0.3571 0.3344
0.3023 0.2672 0.2305 0.1957 0.1677 0.1397
0.1148 0.0884 0.0558 0.0160 -0.0235 -0.0646
-0.0985 -0.1202 -0.1414 -0.1560 -0.1718 -0.1927
-0.2222 -0.2539 -0.2763 -0.3021 -0.3245 -0.3494
-0.3711 -0.3823 -0.3861 -0.3845 -0.3761 -0.3771
-0.3861 -0.3892 -0.4007 -0.4047 -0.4085 -0.4081
-0.4032 -0.3985 -0.3948 -0.4010 -0.4069 -0.4103
-0.4116 -0.4007 -0.3833 -0.3674 -0.3575 -0.3578
-0.3578 -0.3512 -0.3441 -0.3348 -0.3205 -0.3133
-0.3031 -0.2975 -0.2912 -0.2860 -0.2776 -0.2695
-0.2617 -0.2524 -0.2471 -0.2340 -0.2244 -0.2060
-0.1930 -0.1865 -0.1871 -0.1892 -0.1980 -0.1983
-0.1976 -0.2011 -0.1980 -0.2017 -0.2036 -0.2011
-0.1955 -0.1833 -0.1606 -0.1414 -0.1093 -0.0823
-0.0593 -0.0422 -0.0285 -0.0067 0.0225 0.0548
0.0906 0.1257 0.1509 0.1805 0.2050 0.2370
0.2703 0.3023 0.3272 0.3434 0.3499 0.3518
0.3596 0.3801 0.4084 0.4298 0.4429 0.4404
0.4398 0.4419 0.4516 0.4678 0.4864 0.5029
0.5116 0.5122 0.5175 0.5278 0.5480 0.5688
0.5847 0.5983 0.6108 0.6254 0.6375 0.6525
0.6646 0.6817 0.6963 0.7159 0.7395 0.7619
0.7880 0.8089 0.8219 0.8381 0.8514 0.8589
0.8620 0.8729 0.8940 0.9245 0.9531 0.9656
0.9708 0.9693 0.9674 0.9680 0.9792 0.9970
1.0172 1.0343 1.0405 1.0302 1.0240 1.0184
1.0038 0.9901 0.9646 0.9360 0.9087 0.8863
0.8717 0.8524 0.8427 0.8275 0.8098 0.7890
0.7597 0.7389 0.7168 0.6966 0.6711 0.6344
0.5937 0.5551 0.5135 0.4783 0.4444 0.4158
0.3885 0.3552 0.3222 0.2902 0.2579 0.2212
0.1870 0.1472 0.1142 0.0878 0.0701 0.0598
0.0455 0.0353 0.0194 0.0029 -0.0104 -0.0279
-0.0475 -0.0726 -0.0975 -0.1155 -0.1295 -0.1407
-0.1482 -0.1591 -0.1718 -0.1895 -0.2088 -0.2259
-0.2399 -0.2486 -0.2505 -0.2399 -0.2297 -0.2250
-0.2275 -0.2269 -0.2259 -0.2253 -0.2234 -0.2244
-0.2237 -0.2275 -0.2325 -0.2393 -0.2405 -0.2374
-0.2387 -0.2455 -0.2533 -0.2576 -0.2620 -0.2673
-0.2747 -0.2800 -0.2769 -0.2726 -0.2732 -0.2729
-0.2763 -0.2875 -0.3043 -0.3211 -0.3400 -0.3599
-0.3817 -0.4004 -0.4203 -0.4467 -0.4803 -0.5154
-0.5505 -0.5869 -0.6192 -0.6460 -0.6755 -0.7063
-0.7303 -0.7657 -0.7959 -0.8297 -0.8618 -0.8929
-0.9261 -0.9551 -0.9837 -1.0144 -1.0505 -1.0797
-1.1149 -1.1565 -1.2063 -1.2563 -1.3052 -1.3487
-1.3913 -1.4351 -1.4724 -1.5113 -1.5346 -1.5589
-1.5788 -1.5993 -1.6288 -1.6609 -1.6997 -1.7274
-1.7532 -1.7653 -1.7849 -1.7967 -1.8023 -1.8173
-1.8365 -1.8530 -1.8639 -1.8723 -1.8673 -1.8620
-1.8490 -1.8415 -1.8328 -1.8285 -1.8216 -1.8073
-1.7946 -1.7778 -1.7597 -1.7364 -1.7078 -1.6761
-1.6466 -1.6223 -1.5953 -1.5598 -1.5231 -1.4849
-1.4320 -1.3851 -1.3372 -1.2896 -1.2439 -1.1895
-1.1326 -1.0608 -0.9930 -0.9149 -0.8453 -0.7772
-0.7103 -0.6534 -0.5894 -0.5303 -0.4706 -0.4156
-0.3577 -0.2956 -0.2253 -0.1488 -0.0714 -0.0030
0.0633 0.1379 0.2038 0.2756 0.3328 0.3838
0.4414 0.4955 0.5601 0.6236 0.7025 0.7737
0.8400 0.9050 0.9619 1.0110 1.0536 1.0940
1.1382 1.1863 1.2261 1.2700 1.3079 1.3487
1.3813 1.4124 1.4404 1.4677 1.4982 1.5262
1.5536 1.5831 1.6049 1.6282 1.6471 1.6627
1.6842 1.7090 1.7448 1.7731 1.7986 1.8113
1.8213 1.8325 1.8517 1.8698 1.8950 1.9121
1.9202 1.9198 1.9065 1.8887 1.8617 1.8527
1.8356 1.8294 1.8160 1.8051 1.7976 1.7843
1.7740 1.7535 1.7268 1.6901 1.6615 1.6273
1.6064 1.5794 1.5573 1.5321 1.5019 1.4783
1.4472 1.4199 1.3782 1.3340 1.2812 1.2265
1.1783 1.1400 1.1086 1.0875 1.0638 1.0387
1.0026 0.9566 0.9102 0.8639 0.8291 0.7896
0.7427 0.6907 0.6376 0.5959 0.5623 0.5234
0.4836 0.4330 0.3814 0.3304 0.2806 0.2355
0.1935 0.1531 0.1127 0.0729 0.0322 -0.0033
-0.0300 -0.0487 -0.0695 -0.0897 -0.1084 -0.1289
-0.1463 -0.1594 -0.1783 -0.1964 -0.2178 -0.2427
-0.2638 -0.2763 -0.2865 -0.2968 -0.3058 -0.3176
-0.3229 -0.3413 -0.3580 -0.3758 -0.3932 -0.4000
-0.4121 -0.4128 -0.4212 -0.4268 -0.4314 -0.4395
-0.4476 -0.4582 -0.4690 -0.4833 -0.4914 -0.4998
-0.4986 -0.4961 -0.4914 -0.4905 -0.4930 -0.5064
-0.5244 -0.5443 -0.5595 -0.5608 -0.5555 -0.5446
-0.5409 -0.5334 -0.5312 -0.5269 -0.5256 -0.5250
-0.5291 -0.5393 -0.5580 -0.5757 -0.5937 -0.6065
-0.6142 -0.6186 -0.6121 -0.5984 -0.5835 -0.5757
-0.5729 -0.5825 -0.5903 -0.6043 -0.6108 -0.6142
-0.6068 -0.5915 -0.5760 -0.5577 -0.5356 -0.5085
-0.4880 -0.4672 -0.4470 -0.4252 -0.4028 -0.3832
-0.3652 -0.3375 -0.3018 -0.2604 -0.2187 -0.1777
-0.1391 -0.0987 -0.0595 -0.0260 0.0008 0.0291
0.0633 0.0941 0.1233 0.1516 0.1842 0.2138
0.2464 0.2744 0.3030 0.3350 0.3677 0.4050
0.4376 0.4737 0.5132 0.5546 0.5931 0.6317
0.6668 0.6973 0.7215 0.7374 0.7585 0.7731
0.7930 0.8142 0.8419 0.8733 0.9050 0.9401
0.9687 0.9973 1.0160 1.0381 1.0536 1.0685
1.0909 1.1086 1.1273 1.1376 1.1432 1.1581
1.1721 1.1845 1.1945 1.1957 1.1982 1.1929
1.1867 1.1739 1.1599 1.1506 1.1404 1.1326
1.1239 1.1099 1.0946 1.0732 1.0458 1.0210
0.9945 0.9706 0.9392 0.9128 0.8907 0.8714
0.8515 0.8235 0.7881 0.7417 0.7029 0.6662
0.6342 0.6049 0.5797 0.5530 0.5284 0.5017
0.4740 0.4485 0.4150 0.3842 0.3493 0.3189
0.2868 0.2502 0.2147 0.1886 0.1699 0.1528
0.1304 0.1053 0.0763 0.0515 0.0288 0.0061
-0.0104 -0.0319 -0.0496 -0.0673 -0.0897 -0.1124
-0.1370 -0.1587 -0.1752 -0.1939 -0.2044 -0.2218
-0.2371 -0.2535 -0.2759 -0.2974 -0.3201 -0.3366
-0.3540 -0.3639 -0.3736 -0.3770 -0.3826 -0.3910
-0.4071 -0.4208 -0.4379 -0.4507 -0.4529 -0.4734
-0.4908 -0.5222 -0.5527 -0.5856 -0.6176 -0.6388
-0.6553 -0.6621 -0.6721 -0.6805 -0.7047 -0.7252
-0.7529 -0.7828 -0.8082 -0.8325 -0.8533 -0.8785
-0.8978 -0.9180 -0.9236 -0.9289 -0.9329 -0.9357
-0.9460 -0.9525 -0.9572 -0.9653 -0.9706 -0.9861
-1.0091 -1.0287 -1.0405 -1.0467 -1.0557 -1.0673
-1.0940 -1.1139 -1.1319 -1.1416 -1.1490 -1.1537
-1.1580 -1.1714 -1.1867 -1.2056 -1.2212 -1.2345
-1.2373 -1.2398 -1.2432 -1.2454 -1.2547 -1.2740
-1.2933 -1.3095 -1.3241 -1.3350 -1.3505 -1.3570
-1.3685 -1.3741 -1.3685 -1.3682 -1.3682 -1.3800
-1.3990 -1.4195 -1.4304 -1.4397 -1.4404 -1.4401
-1.4335 -1.4264 -1.4223 -1.4130 -1.4031 -1.3944
-1.3853 -1.3797 -1.3707 -1.3449 -1.3213 -1.2964
-1.2743 -1.2445 -1.2121 -1.1742 -1.1431 -1.1164
-1.0912 -1.0632 -1.0243 -0.9761 -0.9192 -0.8633
-0.8107 -0.7719 -0.7318 -0.6926 -0.6438 -0.5890
-0.5275 -0.4699 -0.4171 -0.3664 -0.3226 -0.2703
-0.2147 -0.1565 -0.0996 -0.0412 0.0148 0.0723
0.1283 0.1899 0.2533 0.3139 0.3742 0.4287
0.4877 0.5434 0.5956 0.6469 0.6989 0.7517
0.8024 0.8515 0.8944 0.9417 0.9980 1.0539
1.1118 1.1628 1.2069 1.2389 1.2657 1.2899
1.3210 1.3565 1.3879 1.4143 1.4345 1.4501
1.4585 1.4675 1.4749 1.4818 1.4905 1.5017
1.5076 1.5178 1.5266 1.5225 1.5154 1.5051
1.4902 1.4802 1.4606 1.4414 1.4302 1.4112
1.4016 1.3857 1.3627 1.3378 1.3129 1.2962
1.2875 1.2800 1.2688 1.2408 1.2085 1.1789
1.1525 1.1360 1.1146 1.0922 1.0617 1.0263
0.9855 0.9364 0.8932 0.8490 0.8102 0.7806
0.7467 0.7160 0.6796 0.6392 0.5950 0.5518
0.5076 0.4588 0.4100 0.3649 0.3257 0.2918
0.2514 0.2035 0.1644 0.1199 0.0869 0.0642
0.0462 0.0307 0.0133 -0.0110 -0.0446 -0.0806
-0.1161 -0.1556 -0.1861 -0.2140 -0.2417 -0.2607
-0.2871 -0.3126 -0.3459 -0.3829 -0.4137 -0.4426
-0.4674 -0.4929 -0.5237 -0.5554 -0.5872 -0.6164
-0.6416 -0.6649 -0.6783 -0.6910 -0.6991 -0.7038
-0.7084 -0.7106 -0.7205 -0.7255 -0.7457 -0.7575
-0.7728 -0.7852 -0.7924 -0.8039 -0.8067 -0.8101
-0.8116 -0.8135 -0.8092 -0.8098 -0.8020 -0.7958
-0.7849 -0.7883 -0.7995 -0.8076 -0.8179 -0.8132
-0.8020 -0.7868 -0.7703 -0.7560 -0.7448 -0.7355
-0.7215 -0.7072 -0.6960 -0.6839 -0.6742 -0.6590
-0.6493 -0.6307 -0.6176 -0.6011 -0.5924 -0.5819
-0.5694 -0.5542 -0.5380 -0.5287 -0.5113 -0.5035
-0.4737 -0.4494 -0.4140 -0.3829 -0.3533 -0.3272
-0.3126 -0.2980 -0.2790 -0.2523 -0.2218 -0.1811
-0.1469 -0.1152 -0.0884 -0.0713 -0.0539 -0.0380
-0.0194 0.0046 0.0220 0.0468 0.0661 0.0870
0.1065 0.1311 0.1491 0.1703 0.1855 0.1980
0.2095 0.2191 0.2266 0.2334 0.2437 0.2521
0.2707 0.2847 0.3062 0.3170 0.3348 0.3509
0.3696 0.3830 0.3935 0.4063 0.4206 0.4389
0.4588 0.4790 0.5021 0.5223 0.5353 0.5490
0.5624 0.5733 0.5922 0.6177 0.6448 0.6821
0.7026 0.7300 0.7533 0.7831 0.8105 0.8431
0.8690 0.8938 0.9159 0.9287 0.9448 0.9514
0.9681 0.9784 0.9918 1.0008 1.0089 1.0107
1.0120 1.0073 1.0079 1.0107 1.0104 1.0135
1.0142 1.0061 0.9905 0.9747 0.9563 0.9498
0.9408 0.9302 0.9234 0.9106 0.8960 0.8808
0.8618 0.8416 0.8226 0.8027 0.7803 0.7527
0.7175 0.6821 0.6358 0.5966 0.5633 0.5360
0.5108 0.4778 0.4361 0.3870 0.3460 0.3000
0.2592 0.2148 0.1672 0.1184 0.0686 0.0161
-0.0321 -0.0766 -0.1232 -0.1580 -0.1944 -0.2293
-0.2675 -0.3095 -0.3539 -0.4009 -0.4453 -0.4907
-0.5240 -0.5504 -0.5725 -0.5890 -0.6129 -0.6363
-0.6677 -0.6984 -0.7364 -0.7709 -0.7998 -0.8259
-0.8433 -0.8732 -0.8971 -0.9267 -0.9469 -0.9674
-0.9780 -0.9910 -0.9985 -1.0072 -1.0125 -1.0224
-1.0433 -1.0517 -1.0809 -1.0971 -1.1101 -1.1070
-1.1002 -1.0868 -1.0781 -1.0669 -1.0629 -1.0666
-1.0585 -1.0542 -1.0433 -1.0271 -1.0168 -1.0094
-1.0097 -0.9991 -0.9755 -0.9671 -0.9491 -0.9260
-0.9046 -0.8940 -0.8723 -0.8514 -0.8337 -0.8185
-0.7874 -0.7696 -0.7532 -0.7376 -0.7342 -0.7149
-0.7084 -0.6972 -0.6745 -0.6534 -0.6369 -0.6129
-0.5983 -0.5831 -0.5725 -0.5560 -0.5380 -0.5284
-0.5178 -0.5060 -0.4914 -0.4795 -0.4693 -0.4584
-0.4506 -0.4432 -0.4317 -0.4177 -0.4093 -0.4077
-0.3984 -0.4021 -0.4021 -0.4037 -0.4055 -0.3968
-0.3863 -0.3720 -0.3533 -0.3318 -0.3123 -0.2846
-0.2606 -0.2411 -0.2271 -0.2146 -0.2025 -0.1873
-0.1671 -0.1599 -0.1453 -0.1279 -0.1176 -0.1030
-0.0927 -0.0781 -0.0626 -0.0464 -0.0284 -0.0116
0.0002 0.0133 0.0192 0.0242 0.0416 0.0574
0.0823 0.1022 0.1171 0.1398 0.1619 0.1837
0.2138 0.2409 0.2673 0.2888 0.3105 0.3419
0.3737 0.4138 0.4542 0.4912 0.5353 0.5795
0.6299 0.6818 0.7347 0.7844 0.8335 0.8845
0.9231 0.9613 0.9958 1.0310 1.0677 1.1093
1.1482 1.1883 1.2256 1.2642 1.2962 1.3236
1.3487 1.3761 1.4084 1.4408 1.4840 1.5235
1.5589 1.5835 1.6050 1.6252 1.6535 1.6780
1.7057 1.7268 1.7474 1.7660 1.7794 1.7968
1.8071 1.8164 1.8279 1.8484 1.8633 1.8823
1.8954 1.9087 1.9100 1.9069 1.8991 1.8923
1.8857 1.8808 1.8780 1.8602 1.8453 1.8232
1.8086 1.7925 1.7760 1.7579 1.7349 1.7085
1.6768 1.6426 1.6127 1.5851 1.5574 1.5350
1.5173 1.5027 1.4853 1.4675 1.4445 1.4168
1.3867 1.3522 1.3108 1.2698 1.2287 1.1908
1.1578 1.1258 1.0978 1.0615 1.0288 0.9893
0.9582 0.9259 0.8886 0.8475 0.7934 0.7421
0.6843 0.6299 0.5758 0.5285 0.4775 0.4272
0.3671 0.3146 0.2552 0.2117 0.1573 0.1140
0.0702 0.0195 -0.0228 -0.0800 -0.1260 -0.1776
-0.2131 -0.2476 -0.2541 -0.2951 -0.3057 -0.3334
-0.3632 -0.3710 -0.4058 -0.4176 -0.4463 -0.4683
-0.4851 -0.5056 -0.5137 -0.5268 -0.5545 -0.5629
-0.5887 -0.5899 -0.5936 -0.6005 -0.6027 -0.6275
-0.6390 -0.6446 -0.6462 -0.6443 -0.6459 -0.6555
-0.6676 -0.6819 -0.6878 -0.6882 -0.6938 -0.6984
-0.7009 -0.7133 -0.7143 -0.7239 -0.7351 -0.7444
-0.7625 -0.7646 -0.7771 -0.7821 -0.7880 -0.8016
-0.8082 -0.8175 -0.8240 -0.8265 -0.8396 -0.8495
-0.8589 -0.8775 -0.8868 -0.9117 -0.9285 -0.9475
-0.9643 -0.9683 -0.9739 -0.9705 -0.9789 -0.9854
-0.9972 -1.0013 -0.9982 -0.9916 -0.9736 -0.9612
-0.9487 -0.9385 -0.9266 -0.9139 -0.8968 -0.8794
-0.8564 -0.8330 -0.8110 -0.7867 -0.7653 -0.7435
-0.7323 -0.7252 -0.7152 -0.7018 -0.6816 -0.6543
-0.6219 -0.5874 -0.5563 -0.5243 -0.4867 -0.4574
-0.4298 -0.4033 -0.3834 -0.3564 -0.3365 -0.3119
-0.2846 -0.2566 -0.2258 -0.2012 -0.1760 -0.1596
-0.1418 -0.1263 -0.1098 -0.0927 -0.0660 -0.0392
-0.0159 0.0024 0.0198 0.0369 0.0494 0.0724
0.0907 0.1162 0.1442 0.1663 0.1918 0.2132
0.2291 0.2403 0.2518 0.2633 0.2782 0.2988
0.3127 0.3252 0.3323 0.3320 0.3323 0.3361
0.3432 0.3507 0.3532 0.3550 0.3575 0.3563
0.3544 0.3488 0.3522 0.3529 0.3594 0.3647
0.3700 0.3731 0.3746 0.3799 0.3874 0.3998
0.4073 0.4129 0.4104 0.4141 0.4191 0.4237
0.4340 0.4446 0.4483 0.4558 0.4558 0.4548
0.4555 0.4570 0.4620 0.4670 0.4651 0.4657
0.4645 0.4539 0.4477 0.4368 0.4290 0.4073
0.4001 0.3948 0.3808 0.3743 0.3653 0.3432
0.3392 0.3305 0.3137 0.3196 0.3081 0.2994
0.3044 0.3093 0.3072 0.3196 0.3155 0.3118
0.3128 0.3103 0.3155 0.3152 0.3171 0.3202
0.3299 0.3264 0.3392 0.3448 0.3401 0.3395
0.3404 0.3361 0.3345 0.3379 0.3370 0.3426
0.3370 0.3423 0.3451 0.3364 0.3317 0.3280
0.3168 0.3159 0.3100 0.2944 0.2782 0.2574
0.2412 0.2226 0.2098 0.1946 0.1759 0.1501
0.1361 0.1156 0.1004 0.0880 0.0733 0.0640
0.0472 0.0317 0.0068 -0.0206 -0.0448 -0.0498
-0.0663 -0.0756 -0.0871 -0.0893 -0.0933 -0.0946
-0.1026 -0.1145 -0.1198 -0.1390 -0.1393 -0.1533
-0.1661 -0.1754 -0.1748 -0.1872 -0.1897 -0.1854
-0.1822 -0.1748 -0.1695 -0.1748 -0.1735 -0.1798
-0.1857 -0.1773 -0.1863 -0.1850 -0.1882 -0.1760
-0.1673 -0.1611 -0.1614 -0.1527 -0.1567 -0.1592
-0.1539 -0.1577 -0.1465 -0.1387 -0.1396 -0.1465
-0.1496 -0.1549 -0.1558 -0.1558 -0.1378 -0.1313
-0.1173 -0.1058 -0.1011 -0.0902 -0.0846 -0.0728
-0.0666 -0.0569 -0.0495 -0.0436 -0.0433 -0.0373
-0.0380 -0.0411 -0.0426 -0.0467 -0.0442 -0.0398
-0.0442 -0.0467 -0.0461 -0.0541 -0.0538 -0.0644
-0.0821 -0.0970 -0.1173 -0.1266 -0.1303 -0.1337
-0.1334 -0.1406 -0.1602 -0.1816 -0.2021 -0.2199
-0.2376 -0.2547 -0.2752 -0.2998 -0.3327 -0.3567
-0.3791 -0.4014 -0.4145 -0.4325 -0.4338 -0.4409
-0.4468 -0.4639 -0.4838 -0.5047 -0.5252 -0.5463
-0.5725 -0.5883 -0.6051 -0.6135 -0.6219 -0.6325
-0.6452 -0.6651 -0.6872 -0.7105 -0.7329 -0.7469
-0.7627 -0.7746 -0.7858 -0.7889 -0.7982 -0.8050
-0.8100 -0.8181 -0.8215 -0.8200 -0.8215 -0.8237
-0.8256 -0.8333 -0.8355 -0.8427 -0.8436 -0.8442
-0.8458 -0.8436 -0.8442 -0.8405 -0.8346 -0.8262
-0.8125 -0.7997 -0.7839 -0.7733 -0.7540 -0.7338
-0.7090 -0.6881 -0.6692 -0.6499 -0.6325 -0.6141
-0.5871 -0.5479 -0.5171 -0.4770 -0.4462 -0.4201
-0.3958 -0.3738 -0.3439 -0.3147 -0.2792 -0.2422
-0.2099 -0.1717 -0.1337 -0.0874 -0.0470 -0.0090
0.0295 0.0690 0.1175 0.1694 0.2307 0.2807
0.3289 0.3656 0.4048 0.4381 0.4813 0.5342
0.5911 0.6495 0.7002 0.7506 0.7938 0.8482
0.8961 0.9527 1.0040 1.0550 1.1007 1.1442
1.1821 1.2204 1.2649 1.3022 1.3460 1.3849
1.4225 1.4586 1.4965 1.5344 1.5689 1.5960
1.6221 1.6510 1.6803 1.7023 1.7244 1.7474
1.7608 1.7735 1.7906 1.8021 1.8196 1.8308
1.8444 1.8569 1.8606 1.8625 1.8507 1.8410
1.8264 1.8161 1.8053 1.7956 1.7866 1.7854
1.7813 1.7757 1.7673 1.7468 1.7263 1.6958
1.6653 1.6296 1.5972 1.5714 1.5453 1.5204
1.4841 1.4412 1.3871 1.3295 1.2645 1.2067
1.1582 1.1097 1.0677 1.0127 0.9558 0.8902
0.8264 0.7705 0.7210 0.6700 0.6141 0.5550
0.4947 0.4406 0.3796 0.3184 0.2587 0.2040
0.1542 0.1088 0.0609 0.0096 -0.0470 -0.1045
-0.1636 -0.2183 -0.2665 -0.3103 -0.3523 -0.3977
-0.4403 -0.4813 -0.5258 -0.5640 -0.5976 -0.6328
-0.6657 -0.6996 -0.7329 -0.7606 -0.7792 -0.8000
-0.8178 -0.8417 -0.8656 -0.8921 -0.9126 -0.9347
-0.9524 -0.9717 -0.9888 -1.0074 -1.0301 -1.0534
-1.0864 -1.1181 -1.1492 -1.1669 -1.1871 -1.2015
-1.2217 -1.2388 -1.2568 -1.2755 -1.2913 -1.3025
-1.3181 -1.3324 -1.3498 -1.3585 -1.3706 -1.3883
-1.3967 -1.4064 -1.4042 -1.3983 -1.3871 -1.3771
-1.3712 -1.3774 -1.3569 -1.3606 -1.3712 -1.3650
-1.3488 -1.3376 -1.3137 -1.2758 -1.2528 -1.2241
-1.2027 -1.1741 -1.1579 -1.1343 -1.1187 -1.0979
-1.0690 -1.0401 -1.0090 -0.9850 -0.9614 -0.9409
-0.9166 -0.8862 -0.8526 -0.8187 -0.7907 -0.7630
-0.7357 -0.7108 -0.6834 -0.6586 -0.6265 -0.5933
-0.5606 -0.5444 -0.5261 -0.5025 -0.4692 -0.4300
-0.4020 -0.3797 -0.3570 -0.3433 -0.3178 -0.2792
-0.2503 -0.2208 -0.1909 -0.1589 -0.1377 -0.1225
-0.0986 -0.0746 -0.0538 -0.0202 0.0134 0.0491
0.0696 0.0936 0.1113 0.1340 0.1564 0.1747
0.2006 0.2301 0.2671 0.2876 0.3072 0.3184
0.3371 0.3535 0.3728 0.3874 0.4051 0.4176
0.4254 0.4353 0.4493 0.4627 0.4736 0.4785
0.4788 0.4785 0.4757 0.4732 0.4711 0.4692
0.4596 0.4558 0.4484 0.4477 0.4409 0.4393
0.4322 0.4316 0.4474 0.4558 0.4689 0.4723
0.4708 0.4773 0.4683 0.4785 0.4928 0.4897
0.4938 0.5037 0.5221 0.5342 0.5513 0.5662
0.5846 0.5954 0.6082 0.6265 0.6464 0.6663
0.6797 0.7002 0.7260 0.7469 0.7699 0.7951
0.8150 0.8386 0.8526 0.8722 0.8868 0.8983
0.9229 0.9368 0.9443 0.9536 0.9645 0.9798
0.9916 0.9937 0.9832 0.9770 0.9841 1.0028
1.0196 1.0224 1.0270 1.0136 0.9956 0.9959
0.9953 0.9829 0.9742 0.9686 0.9695 0.9499
0.9403 0.9269 0.9061 0.8902 0.8731 0.8712
0.8622 0.8579 0.8473 0.8293 0.8050 0.7739
0.7397 0.7170 0.7012 0.6772 0.6449 0.6163
0.5839 0.5606 0.5239 0.5040 0.4636 0.4288
0.3933 0.3613 0.3277 0.2938 0.2600 0.2202
0.2062 0.1710 0.1698 0.1387 0.1147 0.0721
0.0323 -0.0239 -0.0572 -0.1026 -0.1533 -0.1844
-0.2130 -0.2291 -0.2658 -0.2714 -0.2932 -0.3221
-0.3756 -0.4132 -0.4490 -0.4673 -0.4897 -0.5112
-0.5382 -0.5541 -0.5799 -0.5839 -0.5998 -0.6383
-0.6505 -0.6927 -0.7182 -0.7363 -0.7506 -0.7689
-0.7820 -0.8031 -0.8044 -0.8184 -0.8305 -0.8420
-0.8694 -0.8889 -0.8908 -0.8973 -0.8983 -0.8958
-0.9091 -0.9039 -0.9076 -0.9101 -0.9070 -0.8995
-0.8958 -0.8861 -0.8942 -0.8917 -0.8765 -0.8690
-0.8575 -0.8544 -0.8578 -0.8563 -0.8383 -0.8274
-0.8190 -0.8146 -0.8131 -0.8156 -0.8072 -0.8028
-0.7988 -0.7888 -0.7801 -0.7708 -0.7599 -0.7400
-0.7182 -0.7030 -0.6912 -0.6791 -0.6716 -0.6713
-0.6654 -0.6529 -0.6312 -0.5970 -0.5721 -0.5488
-0.5351 -0.5258 -0.5192 -0.5031 -0.4863 -0.4658
-0.4502 -0.4399 -0.4253 -0.4054 -0.3774 -0.3541
-0.3240 -0.3044 -0.2882 -0.2786 -0.2602 -0.2378
-0.2161 -0.1931 -0.1778 -0.1673 -0.1595 -0.1430
-0.1172 -0.0920 -0.0737 -0.0634 -0.0662 -0.0702
-0.0684 -0.0597 -0.0466 -0.0308 -0.0161 -0.0034
-0.0018 -0.0059 -0.0177 -0.0280 -0.0332 -0.0320
-0.0264 -0.0314 -0.0364 -0.0432 -0.0457 -0.0494
-0.0572 -0.0706 -0.0849 -0.0948 -0.1004 -0.0982
-0.1088 -0.1247 -0.1508 -0.1722 -0.1859 -0.1959
-0.1980 -0.2049 -0.2074 -0.2257 -0.2441 -0.2658
-0.2854 -0.3038 -0.3112 -0.3193 -0.3274 -0.3317
-0.3457 -0.3600 -0.3846 -0.3958 -0.4073 -0.4200
-0.4322 -0.4430 -0.4574 -0.4751 -0.4934 -0.5031
-0.5034 -0.5006 -0.4978 -0.4968 -0.5015 -0.5068
-0.5195 -0.5354 -0.5472 -0.5534 -0.5513 -0.5460
-0.5357 -0.5391 -0.5391 -0.5481 -0.5519 -0.5503
-0.5357 -0.5170 -0.5046 -0.4937 -0.4965 -0.4990
-0.5068 -0.5040 -0.4996 -0.4810 -0.4636 -0.4595
-0.4536 -0.4536 -0.4536 -0.4458 -0.4297 -0.4095
-0.3737 -0.3401 -0.3125 -0.2814 -0.2503 -0.2226
-0.1955 -0.1713 -0.1464 -0.1150 -0.0805 -0.0357
0.0075 0.0489 0.0902 0.1281 0.1707 0.2174
0.2600 0.3044 0.3452 0.3819 0.4210 0.4562
0.4950 0.5342 0.5768 0.6163 0.6561 0.6999
0.7407 0.7795 0.8184 0.8595 0.9055 0.9530
0.9928 